Jaz Data File
++++++++++++++++++++++++++++++++++++
Date: Fri Aug 08 13:05:31 2014
User: jaz
Dark Spectrum Present: Yes
Reference Spectrum Present: Yes
Processed Spectrum Present: Yes
Spectrometers: JAZA2863
Integration Time (usec): 335000 (JAZA2863)
Spectra Averaged: 3 (JAZA2863)
Boxcar Smoothing: 0 (JAZA2863)
Correct for Electrical Dark: No (JAZA2863)
Strobe/Lamp Enabled: Yes (JAZA2863)
Correct for Detector Non-linearity: No (JAZA2863)
Correct for Stray Light: No (JAZA2863)
Number of Pixels in Processed Spectrum: 2048
>>>>>Begin Processed Spectral Data<<<<<
W	D	R	S	P
190.088943	0.000000	0.000000	0.000000	0.000000
190.471710	0.000000	0.000000	0.000000	0.000000
190.854446	1147.244507	1193.836914	1102.179565	-96.721642
191.237137	1161.756836	1182.379761	1130.440552	-151.851807
191.619812	1186.198853	1186.198730	1148.771973	0.000000
192.002457	1138.842407	1200.711182	1183.143555	71.605019
192.385071	1206.057983	1236.610352	1186.962524	-62.500748
192.767654	1235.846558	1221.334106	1207.585449	194.736969
193.150192	1233.555054	1219.042603	1223.625488	68.421005
193.532730	1205.294067	1211.404541	1226.680786	350.001007
193.915222	1251.886597	1249.595093	1256.469360	-199.989349
194.297684	1212.168335	1204.530273	1203.766479	109.999840
194.680115	1218.278931	1255.705566	1221.334106	8.163106
195.062500	1252.650391	1206.057739	1185.434937	144.261917
195.444870	1338.197144	1295.423828	1251.886475	201.786255
195.827225	1286.257935	1280.911255	1204.530273	1528.568481
196.209518	1285.494263	1259.524658	1214.459839	273.529083
196.591797	1246.539917	1208.349365	1234.318848	32.000244
196.974045	1231.263550	1254.178101	1196.892090	-149.998398
197.356247	1199.183594	1264.871338	1206.057739	10.464883
197.738449	1286.257935	1270.981812	1227.444702	385.001038
198.120605	1250.358887	1289.313232	1251.122681	1.960741
198.502731	1225.153198	1261.052246	1228.208374	8.510465
198.884811	1239.665527	1251.122681	1252.650391	113.334114
199.266876	1258.760864	1225.916992	1202.238892	172.092896
199.648911	1160.229126	1229.735962	1200.711304	58.242008
200.030930	1224.389282	1239.665527	1197.655884	-174.999802
200.412903	1259.524780	1294.659912	1214.459839	-128.261765
200.794830	1267.162720	1270.218140	1225.916992	-1349.920044
201.176743	1248.831177	1280.147461	1222.097900	-85.365417
201.558624	1241.193237	1260.288452	1207.585449	-176.001099
201.940475	1206.821655	1267.926636	1205.294067	-2.499940
202.322296	1230.499878	1256.469360	1144.189087	-332.354675
202.704086	1203.002686	1264.107422	1199.947388	-5.000100
203.085831	1222.098022	1274.037109	1225.153076	5.881993
203.467560	1237.374146	1303.061890	1189.254028	-73.255852
203.849258	1214.459839	1244.248413	1237.374146	76.923141
204.230927	1227.444702	1256.469360	1225.916870	-5.263910
204.612564	1223.625488	1275.564819	1194.600708	-55.882084
204.994156	1251.122681	1292.368530	1233.555176	-42.592175
205.375732	1239.665527	1283.966675	1219.806519	-44.827301
205.757278	1248.831421	1245.776001	1191.545410	1874.898071
206.138794	1225.916992	1257.233276	1187.726440	-121.951096
206.520279	1217.515015	1314.519043	1240.429321	23.622015
206.901703	1227.444702	1244.248413	1206.821777	-122.728394
207.283142	1222.861694	1322.921021	1235.846558	12.977164
207.664536	1209.113159	1316.810547	1174.741577	-31.914963
208.045883	1226.680664	1255.705688	1181.615967	-155.261536
208.427216	1226.680786	1254.177979	1195.364502	-113.889023
208.808487	1242.720825	1261.816040	1234.318848	-44.000435
209.189758	1245.776001	1314.519043	1235.082642	-15.555552
209.571014	1228.208374	1278.619995	1201.474976	-53.030231
209.952225	1195.364502	1254.177979	1207.585449	20.779161
210.333389	1229.735962	1306.117188	1214.459839	-19.999840
210.714508	1205.294067	1267.162720	1152.591064	-85.185310
211.095627	1190.781616	1288.549438	1189.254028	-1.562465
211.476715	1241.956909	1301.534302	1243.484741	2.564449
211.857758	1214.459717	1267.162720	1197.655884	-31.884014
212.238785	1246.539917	1300.770508	1210.640747	-66.197266
212.619781	1237.374023	1340.488647	1232.791382	-4.444221
213.000717	1194.600708	1309.172363	1204.530273	8.666686
213.381653	1203.002563	1251.886597	1215.987427	26.562586
213.762527	1186.962646	1292.368530	1220.570313	31.884050
214.143402	1193.836914	1292.368530	1180.088257	-13.953548
214.524216	1204.530273	1292.368530	1209.113159	5.217414
214.905029	1230.499878	1299.242798	1226.680786	-5.555615
215.285797	1190.017822	1302.298096	1186.198730	-3.401392
215.666550	1172.450073	1293.132324	1196.128296	19.620302
216.047256	1215.223633	1341.252441	1204.530273	-8.484853
216.427933	1225.916992	1319.865723	1188.490234	-39.837429
216.808563	1215.987427	1326.740112	1191.545410	-22.069006
217.189194	1224.389282	1329.031372	1173.213989	-48.905075
217.569778	1242.720825	1335.141968	1222.097900	-22.314077
217.950333	1238.901733	1354.237305	1193.836914	-39.072784
218.330841	1235.846558	1382.498413	1224.389404	-7.812484
218.711334	1222.097900	1356.528687	1163.284424	-43.750004
219.091797	1226.680786	1339.724854	1203.766479	-20.270243
219.472214	1231.263672	1382.498169	1215.987427	-10.101032
219.852615	1228.208374	1400.065918	1193.073120	-20.444407
220.232986	1190.781738	1394.719238	1179.324463	-5.618032
220.613312	1237.374146	1429.090820	1204.530273	-17.131464
220.993607	1220.570313	1454.296509	1205.294067	-6.535958
221.373886	1248.831177	1448.186035	1230.499878	-9.195311
221.754120	1233.555054	1458.879272	1174.741577	-26.101711
222.134308	1240.429321	1474.155640	1222.861694	-7.516324
222.514511	1275.564697	1508.527222	1219.806519	-23.934399
222.894653	1240.429321	1486.376587	1245.012207	1.863361
223.274765	1261.816040	1541.370972	1236.610352	-9.016363
223.654846	1253.414185	1563.521484	1236.610352	-5.418716
224.034912	1244.248413	1571.923462	1260.288452	4.895105
224.414948	1211.404541	1609.350220	1213.695923	0.575803
224.794922	1256.469360	1571.923462	1236.610229	-6.295411
225.174866	1246.539917	1607.822632	1253.414185	1.902739
225.554794	1222.098022	1613.169312	1220.570313	-0.390647
225.934708	1222.861694	1678.856934	1250.358887	6.030149
226.314560	1269.454224	1707.881836	1241.193237	-6.445987
226.694382	1329.031494	1777.388672	1251.886597	-17.206125
227.074203	1285.494263	1879.739380	1260.288452	-4.241652
227.453964	1257.233276	1959.939575	1290.077026	4.673894
227.833710	1270.218018	2096.661621	1284.730347	1.755998
228.213425	1309.172363	2292.961182	1342.016235	3.338508
228.593079	1319.865723	2492.315918	1312.991333	-0.586327
228.972717	1312.227661	2836.031006	1328.267700	1.052632
229.352341	1385.553589	3353.895264	1439.020386	2.716337
229.731918	1415.342163	3842.734131	1508.527222	3.838896
230.111465	1435.201172	4168.117676	1487.140259	1.900500
230.490982	1455.824219	4171.937012	1558.938599	3.796395
230.870483	1463.462280	3913.004883	1481.029907	0.717180
231.249939	1428.327026	3578.455322	1413.050659	-0.710486
231.629364	1422.216431	3246.961182	1411.523071	-0.586019
232.008759	1358.056274	3111.002930	1400.065918	2.396516
232.388107	1342.780151	3074.339844	1413.050781	4.058228
232.767441	1333.614380	2862.764404	1391.664063	3.796206
233.146744	1365.694336	2760.413818	1342.780151	-1.642924
233.526001	1338.197144	2619.872314	1334.378174	-0.297967
233.905228	1336.669556	2516.757813	1331.322876	-0.453075
234.284424	1358.820190	2549.601563	1334.378052	-2.052613
234.663605	1371.805054	2705.419189	1331.322876	-3.035524
235.042755	1357.292480	2857.417725	1374.860229	1.171085
235.421860	1373.332520	2857.417725	1380.970703	0.514673
235.800949	1338.961060	2829.156494	1345.835327	0.461300
236.179962	1377.151489	2862.000732	1341.252441	-2.417690
236.558990	1319.101929	2715.348877	1396.246948	5.525170
236.937973	1355.764771	2784.091797	1406.940308	3.582901
237.316925	1400.066040	2805.478516	1361.111572	-2.771746
237.695831	1375.624023	2751.248047	1399.302124	1.721262
238.074722	1351.182007	2707.710693	1332.850586	-1.351348
238.453583	1371.804810	2690.906982	1345.071533	-2.026627
238.832397	1338.197144	2686.323975	1370.277344	2.379613
239.211197	1379.442993	2708.474365	1364.166748	-1.149427
239.589966	1351.945801	2837.558594	1338.960938	-0.874041
239.968689	1353.473511	2829.920654	1353.473511	0.000000
240.347382	1381.734375	2900.954834	1414.578247	2.161890
240.726028	1357.292480	2994.139893	1400.829712	2.659822
241.104675	1395.483032	3225.574463	1412.286743	0.918190
241.483276	1378.679199	3381.392334	1430.618286	2.593436
241.861832	1427.563110	3683.097656	1437.492676	0.440231
242.240372	1467.281250	4097.083496	1497.069946	1.132735
242.618881	1504.708008	4447.672363	1564.285522	2.024405
242.997360	1549.772827	4894.501953	1638.375000	2.649009
243.375793	1533.732910	5327.582520	1623.098755	2.355545
243.754196	1566.576782	5396.325684	1625.390137	1.535697
244.132568	1526.094727	5321.472168	1652.123657	3.320590
244.510910	1536.788086	4715.770020	1555.883423	0.600675
244.889236	1526.094727	4307.131348	1543.662476	0.631698
245.267517	1487.904297	4072.641357	1431.382202	-2.186764
245.645752	1476.446899	3979.456299	1442.839233	-1.342690
246.023972	1482.557617	4050.490967	1481.029907	-0.059492
246.402161	1499.361328	4352.959961	1516.929077	0.615635
246.780319	1545.953979	4863.949707	1549.772949	0.115099
247.158432	1633.792114	5651.438965	1675.801758	1.045628
247.536530	1749.891602	6689.458496	1765.167603	0.309258
247.914581	1842.312622	7712.201172	1878.975586	0.624594
248.292618	1838.493530	8064.318359	1904.945190	1.067355
248.670609	1756.765747	7621.308105	1853.769897	1.654079
249.048569	1761.348633	6836.873535	1821.689819	1.188866
249.426483	1652.887329	6037.163574	1691.841797	0.888504
249.804382	1675.801758	5458.958496	1614.696777	-1.615185
250.182251	1571.159668	4980.812988	1581.853027	0.313620
250.560074	1571.923462	4475.933594	1539.079590	-1.130983
250.937897	1490.195679	4160.479492	1487.904297	-0.085810
251.315659	1478.738403	4056.600830	1497.069946	0.711114
251.693390	1459.643188	3997.023682	1445.894531	-0.541845
252.071091	1448.186035	4030.631592	1463.462280	0.591542
252.448776	1503.180542	4298.729004	1538.315796	1.256829
252.826416	1544.426270	4655.429199	1543.662476	-0.024551
253.204010	1529.913696	4742.503418	1593.310181	1.973376
253.581573	1528.386108	4690.564453	1555.119629	0.845415
253.959137	1497.833618	4419.411621	1568.104370	2.405233
254.336639	1484.085083	4000.079102	1491.723267	0.303585
254.714127	1428.326782	3699.137451	1481.793823	2.354536
255.091583	1435.965210	3613.590576	1419.924927	-0.736595
255.468994	1439.020142	3557.068604	1400.829712	-1.803095
255.846344	1415.342163	3526.516357	1413.050781	-0.108536
256.223724	1465.753784	3605.952881	1420.688843	-2.105642
256.601044	1433.673462	3625.047852	1474.155640	1.847342
256.978302	1449.713745	3703.720459	1440.547852	-0.406649
257.355560	1448.949829	3872.522705	1435.964966	-0.535774
257.732788	1438.256470	4062.711670	1464.989868	1.018627
258.109955	1481.793823	4233.805176	1492.487183	0.388565
258.487122	1515.401367	4555.369629	1507.763306	-0.251255
258.864258	1553.591919	4857.839355	1542.134766	-0.346740
259.241364	1555.119629	5225.996094	1624.626343	1.893464
259.618408	1629.209351	5858.431641	1717.811523	2.094999
259.995422	1743.780884	6687.931152	1779.680054	0.726094
260.372437	1809.468750	7696.925781	1840.021118	0.518940
260.749390	1944.663208	8673.839844	1949.246094	0.068105
261.126312	1911.055664	9063.383789	1995.074829	1.174711
261.503204	1926.331909	8598.222656	1973.688110	0.709787
261.880066	1815.579224	7575.479004	1811.760132	-0.066305
262.256927	1701.771362	6629.881348	1744.544800	0.867948
262.633728	1665.108398	5768.302246	1678.093262	0.316457
263.010468	1649.832153	5494.857422	1662.816895	0.337702
263.387207	1616.224487	5313.834473	1596.365356	-0.537080
263.763916	1616.224609	5197.734863	1597.129272	-0.533164
264.140564	1597.893066	5030.460449	1586.435913	-0.333778
264.517212	1546.717773	4950.260254	1564.285278	0.516154
264.893829	1576.506226	4789.096191	1588.727417	0.380416
265.270386	1595.601563	4738.685059	1567.340698	-0.899145
265.646912	1544.426270	4746.322754	1567.340454	0.715644
266.023438	1522.275757	4763.890625	1581.089233	1.814327
266.399902	1585.671997	4869.296387	1604.003540	0.558272
266.776367	1592.546387	5247.382813	1629.209351	1.003136
267.152771	1636.083618	5462.013672	1643.721680	0.199639
267.529144	1695.660767	5833.226074	1726.213257	0.738417
267.905518	1636.083496	5880.582031	1710.937134	1.763545
268.281799	1665.872192	5811.075684	1680.384766	0.350105
268.658051	1641.430176	5724.001465	1686.495117	1.103837
269.034302	1649.068359	5772.121094	1675.038086	0.629866
269.410522	1667.399780	5830.170410	1676.565552	0.220184
269.786713	1655.942505	5779.759277	1644.485474	-0.277826
270.162842	1721.630371	5843.155762	1736.906738	0.370648
270.538971	1664.344604	5795.035156	1661.289429	-0.073963
270.915070	1676.565552	5974.531250	1699.479858	0.533143
271.291107	1694.133179	6312.899902	1710.173218	0.347280
271.667114	1738.434204	6835.346191	1756.001953	0.344674
272.043121	1768.223022	7635.056641	1878.211792	1.874755
272.419037	1810.232422	8117.021484	1897.307007	1.380648
272.794983	1853.005859	8060.500000	1844.604004	-0.135350
273.170868	1853.769897	7832.884277	1853.769897	0.000000
273.546722	1788.082031	7404.385254	1843.076294	0.979190
273.922546	1735.379028	7149.272949	1804.885864	1.283860
274.298340	1726.977051	7029.354980	1791.901001	1.224431
274.674072	1744.544800	6722.302246	1701.771362	-0.859291
275.049774	1692.605591	6597.800781	1722.394165	0.607286
275.425507	1691.078003	6372.476563	1747.599976	1.207374
275.801117	1704.826660	6427.471191	1718.575195	0.291119
276.176758	1669.691284	6471.771973	1703.298828	0.699854
276.552338	1688.786621	6717.719238	1799.539063	2.202305
276.927887	1715.520020	6871.245605	1769.750488	1.051849
277.303436	1785.790649	7036.992188	1775.097168	-0.203639
277.678955	1734.615234	6988.872559	1779.680176	0.857684
278.054413	1754.474243	7015.605957	1790.373413	0.682347
278.429840	1772.041992	6995.746582	1785.790527	0.263195
278.805206	1688.786621	6892.632324	1727.740845	0.748566
279.180542	1704.826660	6734.523438	1781.971558	1.533788
279.555908	1665.108398	6690.222656	1762.112427	1.930385
279.931183	1691.841797	6637.519043	1749.127563	1.158300
280.306427	1723.158081	6733.759766	1750.655273	0.548780
280.681641	1734.615234	7011.786621	1754.474243	0.376319
281.056885	1718.575195	7204.267090	1830.855469	2.046784
281.432037	1737.670532	7315.783691	1808.704956	1.273449
281.807159	1756.765747	7722.131348	1840.021118	1.395646
282.182251	1826.272583	8013.906738	1882.794556	0.913467
282.557312	1845.367798	8480.596680	1933.970093	1.335331
282.932343	1814.815430	8789.175781	1969.105347	2.212245
283.307343	1875.920288	8753.276367	1946.954712	1.032874
283.682343	1820.925903	8601.278320	1895.779297	1.103975
284.057220	1825.508789	8191.875000	1878.975586	0.839832
284.432129	1768.986694	8023.836426	1838.493530	1.111247
284.806976	1823.217285	8028.419434	1869.046021	0.738553
285.181824	1836.965942	8318.667969	1910.291626	1.131272
285.556641	1860.644043	8733.417969	1924.804199	0.933541
285.931396	1869.046021	8806.743164	1953.065308	1.211054
286.306122	1829.327759	8941.173828	1933.206055	1.460638
286.680817	1836.965820	9378.074219	1992.019531	2.056113
287.055511	1897.307007	9497.992188	2045.486328	1.949552
287.430084	1862.935547	9537.710938	1976.743286	1.482880
287.804688	1876.684082	9468.203125	1949.246094	0.955830
288.179291	1825.508789	8948.047852	1889.668945	0.900805
288.553802	1808.704956	8508.856445	1900.362305	1.367989
288.928284	1799.539185	8214.026367	1853.769897	0.845441
289.302765	1790.373413	8117.021484	1875.156616	1.340097
289.677216	1775.097168	8188.056152	1891.960327	1.822297
290.051605	1810.232422	8342.346680	1855.297363	0.689898
290.425964	1820.162109	8709.739258	1850.714478	0.443458
290.800293	1840.021118	9104.629883	1970.632813	1.797918
291.174622	1940.844238	9469.731445	1976.743286	0.476817
291.548828	1905.708984	9646.936523	1977.507202	0.927478
291.923096	1878.975586	9556.804688	1969.869141	1.183844
292.297272	1820.925903	9254.335938	1979.798706	2.137280
292.671448	1853.005981	9022.137695	1960.703491	1.502239
293.045593	1856.061157	8630.301758	1932.442383	1.127524
293.419678	1773.569702	8445.460938	1895.015625	1.820262
293.793762	1760.584839	8420.254883	1850.714478	1.353365
294.167786	1810.232544	8633.358398	1929.387085	1.746334
294.541779	1823.217285	8955.686523	1916.402344	1.306491
294.915741	1856.061157	9337.590820	1949.246094	1.245533
295.289673	1891.196655	9895.938477	2015.697754	1.555342
295.663574	1918.693726	9892.118164	2047.777710	1.618928
296.037445	1930.150879	10008.217773	1998.130005	0.841527
296.411255	1915.638550	9951.695313	2085.204590	2.110065
296.785065	1945.427124	10260.276367	2063.053955	1.414660
297.158844	1987.436646	10670.442383	2147.837158	1.847292
297.532593	2003.476685	11082.136719	2132.560791	1.421841
297.906281	2048.541748	11388.424805	2171.515381	1.316651
298.279907	2004.240601	11435.018555	2133.324463	1.368751
298.653564	1984.381470	10963.745117	2111.174072	1.412045
299.027161	1974.452026	10435.952148	2022.571899	0.568692
299.400696	1873.628906	9824.139648	1953.829102	1.008743
299.774231	1849.186890	9507.157227	2016.461548	2.184321
300.147736	1823.217285	9111.503906	1960.703491	1.886400
300.521179	1797.247681	8813.617188	1928.623169	1.872414
300.894623	1834.674438	8688.352539	1930.914673	1.404213
301.268036	1811.760132	8667.729492	1901.889771	1.314616
301.641388	1793.428711	8545.519531	1882.030762	1.312217
302.014740	1778.152344	8448.515625	1857.588867	1.190888
302.387970	1802.594360	8436.293945	1908.000366	1.588948
302.761292	1819.398315	8568.434570	1905.708984	1.278859
303.134460	1833.910645	8413.379883	1830.091431	-0.058047
303.507690	1775.860962	8160.558594	1843.840210	1.064721
303.880829	1772.805786	7777.125488	1825.508789	0.877751
304.253967	1785.790527	7787.818848	1773.569458	-0.203616
304.627045	1739.198120	7722.895020	1794.192505	0.919070
305.000122	1807.941040	7717.548340	1837.729858	0.504074
305.373169	1748.363892	7651.096191	1806.413452	0.983435
305.746094	1754.474243	7622.071777	1817.106812	1.067431
306.119110	1793.428711	7528.123047	1854.533569	1.065529
306.491974	1785.790649	7650.332520	1816.343140	0.520970
306.864868	1770.514282	7609.087402	1800.303101	0.510207
307.237762	1738.434204	7629.710449	1826.272461	1.490989
307.610565	1768.986816	7680.121094	1813.287720	0.749448
307.983368	1764.403809	7569.369141	1843.840210	1.368422
308.356140	1777.388672	7634.292969	1812.523926	0.599895
308.728821	1790.373535	7952.802246	1832.383179	0.681706
309.101532	1785.026855	8321.722656	1901.126099	1.776115
309.474182	1848.422974	8464.555664	1893.487915	0.681137
309.846771	1857.588867	8693.699219	1933.206055	1.106143
310.219391	1875.156372	8611.207031	2005.768188	1.938997
310.591919	1855.297363	8576.072266	1911.055664	0.829641
310.964417	1852.242188	8660.090820	1948.482422	1.413666
311.336914	1849.950684	8537.880859	1911.819458	0.925081
311.709381	1823.217285	8455.389648	1937.789063	1.727515
312.081757	1846.895508	8658.563477	1941.608032	1.390445
312.454163	1856.824829	8611.971680	1930.914673	1.096791
312.826508	1797.247681	8455.389648	1924.040405	1.904326
313.198853	1870.573608	8347.692383	1901.125977	0.471697
313.571106	1806.413452	7938.289551	1847.659180	0.672644
313.943329	1782.735352	7761.085449	1863.699341	1.354287
314.315552	1785.790527	7689.287109	1873.628906	1.487904
314.687744	1853.769897	7915.375000	1890.432617	0.604835
315.059845	1840.785034	8172.779785	1846.131470	0.084435
315.431976	1826.272583	8628.010742	1856.061157	0.437955
315.804047	1823.217407	8599.750977	1917.166138	1.386383
316.176117	1847.659302	8273.602539	1901.890015	0.843934
316.548096	1840.785034	7870.310547	1819.398315	-0.354700
316.920074	1749.127563	7443.339844	1823.217285	1.301141
317.291992	1757.529663	7254.678223	1842.312500	1.542306
317.663940	1772.041992	7194.337402	1775.097168	0.056345
318.035767	1787.318237	7187.463379	1741.489624	-0.848655
318.407654	1777.388672	7040.047363	1772.805786	-0.087083
318.779388	1741.489624	7109.554688	1760.584839	0.355719
319.151184	1795.720093	7129.414063	1756.765747	-0.730345
319.522919	1780.443848	7357.792969	1763.640015	-0.301287
319.894623	1779.680054	7472.365234	1804.122070	0.429358
320.266296	1773.569702	7428.827637	1789.609741	0.283631
320.637878	1715.519897	7417.370605	1787.318237	1.259211
321.009521	1767.458984	7143.162598	1796.483887	0.539927
321.381042	1737.670410	7031.645996	1778.152344	0.764679
321.752594	1739.198120	6886.521484	1768.986694	0.578720
322.124054	1702.535156	6826.180176	1755.238159	1.028623
322.495514	1713.992310	6918.601563	1750.655273	0.704433
322.866943	1693.369507	7001.857422	1770.514282	1.453234
323.238342	1758.293457	7146.217285	1785.790527	0.510346
323.609711	1802.594360	7384.526855	1797.247681	-0.095785
323.981049	1847.659180	7827.537109	1901.890015	0.906889
324.352325	1843.840210	8302.627930	1929.387085	1.324504
324.723572	1860.644043	8581.417969	1922.512817	0.920560
325.094818	1918.693726	8830.420898	1967.577637	0.707260
325.465973	1902.653687	8540.936523	1988.200562	1.288690
325.837158	1840.785034	8340.054688	1890.432617	0.763895
326.208252	1846.895508	8161.322754	1900.362305	0.846740
326.579315	1863.699341	8130.769531	1937.789063	1.182207
326.950378	1903.417480	8270.547852	1892.724121	-0.167946
327.321381	1885.849976	8299.573242	1935.497681	0.774086
327.692383	1890.432617	8210.969727	1943.899414	0.845922
328.063324	1822.453491	7859.617188	1910.291626	1.454957
328.434235	1804.122070	7753.447754	1787.318237	-0.282449
328.805084	1854.533569	7499.098145	1819.398315	-0.622462
329.175934	1859.116333	7514.374512	1803.358276	-0.985951
329.546722	1860.644043	7515.138672	1840.784790	-0.351212
329.917511	1862.171753	7479.238770	1826.272461	-0.639111
330.288239	1904.945190	7624.363281	1872.101196	-0.574254
330.658936	1849.186890	7424.244629	1831.619263	-0.315111
331.029602	1849.186890	7507.500000	1862.171509	0.229479
331.400238	1897.307007	7479.239746	1824.744995	-1.299944
331.770844	1909.527954	7672.482910	1810.232422	-1.722997
332.141357	1923.276733	7667.900879	1911.055664	-0.212739
332.511932	1879.739258	7729.005371	1916.402344	0.626798
332.882385	1965.286255	7795.457031	1896.543091	-1.179093
333.252869	1988.200562	7958.912598	1916.402344	-1.202507
333.623260	1927.095703	7929.888184	1918.693726	-0.139968
333.993683	1946.190918	8065.082520	1923.276733	-0.374483
334.364044	1938.552734	7981.826660	1882.030762	-0.935287
334.734375	1994.311035	7747.337402	1938.552734	-0.969199
335.104645	1989.728149	7793.165527	1889.668945	-1.724137
335.474915	2046.250122	7814.552246	1957.648071	-1.536016
335.845123	2013.406250	7815.315918	2014.933960	0.026331
336.215271	2045.486328	8002.449707	1945.427124	-1.679702
336.585480	2066.109375	8277.422852	2016.461548	-0.799313
336.955566	2024.099609	8180.417969	2002.712891	-0.347395
337.325653	2053.124512	8260.618164	2001.949219	-0.824412
337.695679	2090.551270	8410.325195	2011.114868	-1.256950
338.065674	2068.400635	8666.965820	2027.154907	-0.625071
338.435669	2131.033203	9025.957031	2060.762451	-1.019166
338.805603	2131.033203	9130.598633	2008.823608	-1.745960
339.175507	2127.214111	8965.616211	2089.787354	-0.547303
339.545349	2118.812256	8679.950195	2045.486328	-1.117579
339.915222	2061.526367	8437.057617	2021.808228	-0.622978
340.285004	2085.204346	8304.918945	1971.396606	-1.829790
340.654785	2037.848267	8262.145508	1945.427124	-1.484845
341.024506	2107.355225	8238.467773	2014.170044	-1.519874
341.394196	2057.707275	8188.056152	1996.602539	-0.996758
341.763855	2146.309570	8384.355469	2040.903687	-1.689726
342.133484	2141.726563	8523.369141	2037.848267	-1.627767
342.503082	2150.128418	8586.765625	2060.762451	-1.388395
342.872620	2157.002930	8652.453125	2011.878784	-2.234243
343.242157	2163.113281	8637.940430	2034.792969	-1.981834
343.611603	2145.545654	8630.302734	2037.848267	-1.660778
343.981079	2185.263916	8679.186523	2061.526367	-1.905436
344.350494	2223.454346	9121.433594	2076.802490	-2.126012
344.719910	2261.644775	9266.557617	2143.254150	-1.690108
345.089203	2259.353760	9581.247070	2142.490479	-1.596080
345.458557	2276.921143	9848.581055	2148.600830	-1.694745
345.827820	2292.961182	9931.073242	2180.680908	-1.470000
346.197052	2318.930664	9932.600586	2204.359131	-1.504814
346.566284	2301.363037	9971.554688	2224.218018	-1.005777
346.935455	2326.568848	9767.618164	2157.766602	-2.268528
347.304565	2309.764893	9711.094727	2187.555176	-1.651186
347.673676	2266.991699	9591.940430	2187.555420	-1.084462
348.042755	2292.961182	9153.512695	2113.465576	-2.616343
348.411774	2246.368652	8980.127930	2058.470947	-2.790384
348.780792	2214.288574	8744.110352	2089.023682	-1.918351
349.149719	2199.012451	8673.075195	2095.134033	-1.604532
349.518646	2196.720947	8761.678711	2096.661865	-1.524139
349.887543	2198.248779	8972.490234	2108.118896	-1.330479
350.256409	2266.227783	9006.861328	2150.892334	-1.711048
350.625214	2265.463867	9261.973633	2182.972412	-1.179037
350.993958	2275.393555	9388.767578	2138.671631	-1.922040
351.362762	2265.464111	9330.717773	2131.033203	-1.902705
351.731445	2286.850830	9242.116211	2181.444824	-1.515485
352.100159	2270.810547	9287.944336	2106.591064	-2.340264
352.468781	2289.906006	9202.397461	2138.671387	-2.187845
352.837402	2284.559326	9349.812500	2135.615967	-2.108111
353.205963	2276.157227	9447.581055	2165.404541	-1.544361
353.574524	2326.568848	9642.352539	2160.822021	-2.265606
353.943024	2325.041260	9901.284180	2180.680908	-1.905434
354.311493	2395.311768	10294.647461	2296.780273	-1.247339
354.679901	2415.171143	10465.741211	2276.921143	-1.717270
355.048309	2471.693115	10533.719727	2308.237549	-2.027475
355.416687	2490.788330	10746.824219	2250.951416	-2.904989
355.785004	2475.511963	10884.309570	2305.946045	-2.016530
356.153290	2473.984375	11014.921875	2310.529053	-1.913787
356.521545	2554.948486	11324.265625	2353.302246	-2.299452
356.889740	2607.651367	11620.624023	2368.578613	-2.652540
357.257965	2580.154297	11776.440430	2412.879639	-1.818937
357.626099	2713.821289	12128.558594	2532.797852	-1.922767
357.994232	2726.042236	12861.816406	2564.877930	-1.590054
358.362274	2822.282471	13658.471680	2633.621094	-1.741031
358.730347	2800.131836	13796.721680	2609.942871	-1.729527
359.098328	2764.996338	13431.620117	2583.973389	-1.697097
359.466339	2697.781250	12541.780273	2553.420898	-1.466481
359.834259	2635.912354	12253.058594	2465.582275	-1.771108
360.202179	2674.103271	12255.350586	2507.592041	-1.737887
360.570007	2717.640137	12705.234375	2516.757813	-2.011318
360.937866	2785.619385	13402.594727	2589.320068	-1.848919
361.305634	2872.694092	13881.504883	2667.992432	-1.859435
361.673431	2964.351318	14774.399414	2732.916748	-1.959641
362.041168	3180.509766	15742.913086	2874.221436	-2.438135
362.408783	3182.037109	17157.492188	3001.778076	-1.289826
362.776489	3282.096680	17666.189453	3037.677002	-1.699236
363.144104	3253.071533	16964.248047	3011.707275	-1.760347
363.511688	3064.410400	15515.296875	2829.920654	-1.883318
363.879211	2916.231201	14005.242188	2677.922119	-2.149056
364.246735	2800.131836	12972.569336	2595.430420	-2.012314
364.614197	2635.148682	12281.320313	2460.999756	-1.805368
364.981659	2590.083740	11780.260742	2470.928955	-1.296545
365.349060	2549.601563	11616.804688	2400.658447	-1.642658
365.716431	2508.355713	11281.492188	2369.342285	-1.584535
366.083771	2467.874023	11031.725586	2347.955811	-1.400284
366.451050	2457.180664	10937.012695	2294.489014	-1.918572
366.818359	2413.643311	10802.582031	2227.273438	-2.221615
367.185516	2376.980469	10648.291992	2297.543945	-0.960386
367.552765	2418.226318	10836.954102	2297.544189	-1.433496
367.919891	2423.572998	10962.981445	2290.669922	-1.556350
368.286987	2476.275635	10788.833008	2296.016357	-2.168518
368.654083	2450.306396	10726.201172	2265.464111	-2.233502
369.021149	2351.774658	10287.008789	2261.645020	-1.135816
369.388184	2260.117432	10173.201172	2163.876953	-1.216220
369.755127	2326.568848	10034.187500	2245.604736	-1.050443
370.122070	2341.844971	10024.257813	2229.564697	-1.461524
370.488953	2381.563232	10135.774414	2192.137939	-2.442870
370.855865	2314.347900	10112.860352	2194.429688	-1.537706
371.222687	2316.639404	10109.040039	2210.469482	-1.362480
371.589478	2378.508057	10531.428711	2263.936279	-1.405285
371.956238	2384.618408	10766.682617	2309.764893	-0.893020
372.322968	2398.367188	10612.393555	2293.725098	-1.273944
372.689667	2369.342529	10565.036133	2290.669922	-0.959926
373.056335	2317.403076	10529.136719	2270.046875	-0.576689
373.422943	2325.041260	10311.451172	2233.383789	-1.147668
373.789520	2316.639404	10120.499023	2278.448730	-0.489382
374.156097	2390.729004	10139.593750	2244.077148	-1.892559
374.522552	2375.452881	10291.592773	2195.193115	-2.277117
374.889069	2355.593750	10364.917969	2254.006836	-1.268358
375.255463	2335.734619	10506.987305	2249.424072	-1.056271
375.621887	2354.066162	10573.438477	2263.172607	-1.105845
375.988251	2368.578369	10797.999023	2315.875732	-0.625223
376.354584	2353.302490	11105.815430	2305.946045	-0.541061
376.720886	2467.110107	11413.629883	2317.403076	-1.673355
377.087158	2451.833984	11622.915039	2367.814697	-0.916133
377.453400	2532.797852	12174.386719	2399.894775	-1.378435
377.819550	2588.555908	12825.917969	2498.426514	-0.880397
378.185699	2581.681885	13068.045898	2483.914063	-0.932333
378.551788	2552.656982	12964.166992	2512.938721	-0.381484
378.917908	2520.576904	12512.754883	2494.607178	-0.259901
379.283936	2460.999756	11923.856445	2400.658447	-0.637665
379.649933	2428.156006	11429.670898	2389.965088	-0.424272
380.015930	2321.986084	11182.195313	2340.317627	0.206897
380.381866	2297.544189	10788.069336	2276.921143	-0.242895
380.747772	2305.182373	10815.566406	2289.906006	-0.179503
381.113586	2270.810791	10751.406250	2310.529053	0.468343
381.479462	2283.031738	10750.642578	2238.730713	-0.523182
381.845215	2260.117432	10915.625977	2286.086914	0.300034
382.210999	2226.509521	10595.588867	2243.313477	0.200786
382.576691	2283.031494	10658.985352	2283.031494	0.000000
382.942383	2287.614502	10640.653320	2291.433594	0.045721
383.308044	2314.347900	10866.742188	2254.006836	-0.705546
383.673645	2271.574463	10933.957031	2293.724854	0.255708
384.039215	2302.126953	11234.898438	2322.749756	0.230867
384.404785	2316.639404	11399.117188	2351.774658	0.386847
384.770294	2334.207031	11540.422852	2291.433594	-0.464615
385.135742	2347.955811	11456.403320	2338.026123	-0.109016
385.501190	2333.443115	11497.649414	2372.397705	0.425073
385.866547	2371.633789	11506.051758	2309.765137	-0.677314
386.231934	2329.624023	11441.891602	2327.332764	-0.025145
386.597229	2341.081299	11404.464844	2383.090820	0.463508
386.962524	2316.639404	11609.166992	2302.126953	-0.156173
387.327759	2341.081299	11730.612305	2366.287109	0.268446
387.692963	2353.302246	11913.164063	2418.226318	0.679132
388.058136	2373.161377	12101.824219	2370.870117	-0.023552
388.423279	2376.980469	12048.356445	2369.342285	-0.078977
388.788422	2309.765137	11910.872070	2372.397705	0.652347
389.153442	2263.936523	11699.295898	2321.222412	0.607140
389.518524	2267.755371	11654.995117	2373.161377	1.122865
389.883484	2279.212646	11587.780273	2359.412842	0.861574
390.248444	2211.997314	11517.508789	2297.544189	0.919314
390.613373	2270.810547	11528.965820	2332.679443	0.668264
390.978271	2266.991699	11559.518555	2362.468018	1.027453
391.343109	2257.062256	11898.651367	2385.382324	1.330902
391.707916	2297.544189	12515.809570	2421.281494	1.210942
392.072693	2392.256592	13204.003906	2476.276123	0.777113
392.437408	2419.753662	13472.864258	2525.159912	0.953634
392.802155	2428.156006	13708.882813	2529.742676	0.900533
393.166779	2364.759521	13223.098633	2513.702637	1.371693
393.531433	2299.071533	12748.772461	2481.622803	1.746952
393.895996	2360.940430	12413.459961	2474.748291	1.132133
394.260590	2325.041260	12561.637695	2490.024414	1.611699
394.625092	2302.126953	12782.379883	2477.803711	1.676265
394.989563	2357.885010	13140.606445	2538.144531	1.671744
395.354004	2345.664063	13363.640625	2463.291016	1.067591
395.718445	2265.463867	12977.916992	2490.788330	2.103388
396.082825	2305.946045	12457.760742	2428.919678	1.211346
396.447113	2283.031494	11965.101563	2379.271973	0.994007
396.811462	2211.997314	11598.472656	2269.282959	0.610300
397.175690	2189.846680	11615.276367	2315.111572	1.329010
397.539948	2215.816406	11432.726563	2351.774658	1.475096
397.904114	2146.309326	11245.592773	2244.841064	1.082852
398.268280	2106.591064	11295.239258	2236.439209	1.413136
398.632385	2158.530273	11172.265625	2304.418213	1.618507
398.996460	2150.892334	11121.090820	2237.202881	0.962192
399.360535	2148.600830	11278.436523	2262.408691	1.246549
399.724518	2151.656006	11304.406250	2318.930664	1.827589
400.088501	2160.822021	11297.531250	2288.378174	1.396084
400.452423	2081.385498	11344.124023	2316.639404	2.539788
400.816345	2147.073242	11116.507813	2312.820313	1.847910
401.180206	2134.852295	10999.645508	2294.488770	1.800792
401.544006	2131.797119	11360.164063	2283.795654	1.647079
401.907806	2077.566406	11014.921875	2296.016357	2.444235
402.271576	2075.275146	10959.926758	2266.991455	2.157837
402.635284	2038.612183	11295.241211	2302.126953	2.846768
402.998962	2124.158936	11238.717773	2290.669678	1.826866
403.362610	2118.048584	11492.303711	2342.608887	2.395500
403.726166	2124.158936	11523.620117	2331.915771	2.210306
404.089783	2118.048584	11805.465820	2380.035889	2.704408
404.453278	2184.500000	12221.743164	2381.563232	1.963320
404.816803	2257.062256	12395.127930	2435.793945	1.762976
405.180237	2231.856201	12760.230469	2466.346436	2.227222
405.543671	2179.153320	12796.893555	2431.974854	2.381124
405.907043	2230.328613	12816.750977	2495.371094	2.503608
406.270416	2220.399170	12757.174805	2477.803467	2.442913
406.633698	2155.475098	12506.644531	2483.150146	3.165585
406.996948	2169.987549	12421.097656	2416.698486	2.406675
407.360229	2118.812256	11980.378906	2386.146240	2.710867
407.723358	2121.867432	12095.713867	2346.427979	2.251494
408.086578	2147.836914	11953.644531	2409.824219	2.671757
408.449677	2137.143555	11849.002930	2367.814697	2.375149
408.812805	2122.631348	11700.823242	2324.277344	2.105262
409.175842	2140.198975	11674.854492	2392.256592	2.643595
409.538849	2132.560791	11739.778320	2413.643311	2.925743
409.901825	2143.254150	11910.106445	2347.955811	2.095881
410.264740	2121.867432	12120.918945	2411.351807	2.895118
410.627686	2150.128418	12522.684570	2451.070068	2.901326
410.990509	2190.610596	12611.286133	2460.235596	2.587404
411.353363	2171.515381	12691.487305	2430.447266	2.461336
411.716125	2138.671143	12738.843750	2444.196045	2.882263
412.078918	2134.852295	12321.039063	2431.974854	2.916917
412.441620	2139.435303	12396.656250	2464.818604	3.172236
412.804291	2085.968262	11986.489258	2398.367188	3.155379
413.166931	2124.158936	11765.747070	2370.870117	2.558823
413.529541	2142.490234	11939.897461	2434.266357	2.978095
413.892120	2104.299805	11926.911133	2417.462402	3.188181
414.254669	2090.551514	12200.356445	2384.618408	2.908730
414.617126	2144.018066	11997.182617	2424.336670	2.844960
414.979584	2125.686523	12408.113281	2438.085205	3.038180
415.342010	2156.239014	12327.913086	2414.407227	2.538110
415.704376	2121.867432	12405.057617	2472.457031	3.409347
416.066772	2160.822021	12599.065430	2486.205322	3.117223
416.429047	2143.254150	12851.122070	2559.531250	3.887582
416.791321	2208.177979	13219.280273	2554.184570	3.142343
417.153564	2199.776123	13289.550781	2603.068604	3.636616
417.515747	2242.549805	13649.304688	2656.535400	3.629302
417.877930	2228.801025	13785.264648	2663.409668	3.760741
418.240021	2307.473633	14306.946289	2719.167725	3.430935
418.602142	2241.785889	14540.672852	2752.775391	4.154762
418.964142	2307.473633	15161.652344	2719.931641	3.208746
419.326202	2333.443115	15617.647461	2857.417725	3.944343
419.688171	2435.030029	16041.562500	2902.482422	3.435500
420.050079	2419.753906	16643.445313	2974.280518	3.898612
420.411987	2433.502686	17156.726563	2988.793213	3.771528
420.773865	2474.748291	17666.953125	3004.069336	3.484162
421.135681	2597.721924	18464.373047	3143.083008	3.437153
421.497467	2666.464844	19403.859375	3269.112061	3.600604
421.859222	2679.449463	20098.929688	3326.397705	3.713935
422.220917	2728.333740	20297.517578	3404.306396	3.847490
422.582611	2703.891602	19991.230469	3373.753906	3.874872
422.944244	2671.047852	19309.146484	3298.900391	3.773584
423.305847	2706.947021	19264.845703	3250.016602	3.279822
423.667389	2619.108643	19040.285156	3256.890625	3.883900
424.028931	2661.118164	19198.394531	3243.142334	3.519468
424.390411	2678.685791	19610.853516	3341.673828	3.915553
424.751892	2626.746582	20042.406250	3324.106445	4.004211
425.113281	2678.685791	20489.998047	3410.416992	4.108239
425.474640	2700.836182	20230.302734	3433.331299	4.178650
425.835999	2733.680420	19788.056641	3344.729248	3.582944
426.197266	2619.108643	19367.197266	3298.136719	4.054362
426.558594	2617.580811	18822.599609	3228.629883	3.770740
426.919769	2557.239990	18604.912109	3172.871826	3.836269
427.280975	2573.280029	17968.658203	3118.640869	3.542367
427.642090	2496.898682	17757.845703	3090.380127	3.888890
428.003235	2511.411133	17127.701172	3080.450439	3.893186
428.364288	2435.030029	16512.833984	2976.572266	3.846781
428.725342	2380.035645	16165.299805	2963.587158	4.233154
429.086365	2371.633789	15764.299805	2898.663330	3.935210
429.447296	2308.237549	15621.465820	2913.175781	4.543888
429.808258	2337.262451	15382.393555	2826.101318	3.747290
430.169128	2320.458252	15231.922852	2845.196533	4.064126
430.529999	2298.307861	15108.184570	2839.086182	4.221573
430.890778	2265.463867	15206.715820	2778.745117	3.966241
431.251526	2281.504150	14905.774414	2839.850342	4.422800
431.612274	2283.031494	14917.996094	2785.619385	3.977755
431.972992	2228.037354	14747.666992	2820.754639	4.734303
432.333649	2241.785889	14749.958008	2862.764404	4.964582
432.694275	2283.795410	14741.555664	2787.147217	4.040468
433.054871	2340.317627	14976.045898	2839.086182	3.947288
433.415375	2335.734619	15224.284180	2936.854248	4.663982
433.775940	2293.725098	15403.016602	2825.337646	4.055235
434.136383	2276.157471	15545.848633	2913.939453	4.806306
434.496826	2321.986084	15791.796875	2916.231201	4.411681
434.857208	2392.256836	15786.449219	2941.436768	4.100135
435.217560	2383.854736	15904.839844	2962.059814	4.276353
435.577881	2354.066162	15651.254883	2905.537842	4.147280
435.938171	2351.774658	15759.715820	2959.004639	4.528883
436.298431	2352.538330	15422.112305	2903.246338	4.213665
436.658630	2306.709717	15328.163086	2904.774170	4.592916
437.018799	2267.755615	15331.981445	2912.412109	4.934517
437.378937	2348.719482	15340.383789	2929.979736	4.474102
437.739075	2312.820313	15270.877930	2962.059814	5.010315
438.099091	2305.946045	15707.012695	2979.627686	5.027075
438.459137	2339.553711	15865.122070	2992.612305	4.828326
438.819092	2382.327148	16022.467773	3013.235107	4.625377
439.179077	2396.075439	16278.343750	2956.712891	4.038515
439.538940	2399.894775	16576.232422	3088.852539	4.859913
439.898773	2407.532959	16827.525391	3121.696533	4.952593
440.258636	2412.115479	17183.460938	3156.067627	5.036455
440.618408	2505.300781	17463.779297	3143.846924	4.268791
440.978180	2519.049072	17830.408203	3247.725342	4.759057
441.337891	2570.224609	18607.205078	3315.704346	4.648504
441.697601	2581.681641	18988.345703	3381.391846	4.874301
442.057220	2638.203857	18950.919922	3360.005127	4.424777
442.416840	2566.405518	18893.632813	3389.030518	5.038363
442.776367	2509.883545	18151.208984	3332.508057	5.259302
443.135864	2543.491211	17933.523438	3220.991943	4.402205
443.495422	2525.159912	17628.000000	3288.970947	5.057400
443.854828	2483.913818	17091.039063	3161.414795	4.638154
444.214264	2411.351807	17030.697266	3117.877197	4.832811
444.573608	2431.210938	16944.388672	3138.500000	4.873426
444.932953	2441.140625	16909.251953	3130.098389	4.761905
445.292267	2462.527344	16813.775391	3126.279297	4.625047
445.651550	2431.974854	17490.513672	3246.197510	5.407050
446.010742	2462.527100	17718.892578	3256.126953	5.201762
446.369934	2498.426514	18132.876953	3382.156006	5.652450
446.729065	2568.697021	18885.232422	3476.868408	5.565958
447.088165	2623.691406	19481.003906	3463.119873	4.979610
447.447235	2633.620850	19616.199219	3495.963867	5.077810
447.806244	2640.495117	19555.095703	3521.933350	5.211109
448.165253	2624.455322	19587.173828	3576.927734	5.615093
448.524200	2558.003662	19319.837891	3475.341064	5.472775
448.883148	2632.093506	18851.625000	3488.325439	5.279018
449.241974	2565.641602	18631.646484	3445.552002	5.476846
449.600891	2567.933350	18131.349609	3436.386719	5.580095
449.959656	2524.396240	17775.414063	3292.026367	5.033304
450.318420	2465.582520	17626.470703	3369.171143	5.959998
450.677155	2481.622314	17252.966797	3220.227783	5.000259
451.035797	2412.115723	16886.337891	3224.810791	5.614775
451.394470	2400.658447	16473.115234	3195.022217	5.644812
451.753082	2417.462646	16255.429688	3159.886963	5.365126
452.111664	2415.170898	16182.867188	3128.570557	5.181692
452.470154	2399.894775	16258.485352	3230.157471	5.990961
452.828705	2431.974854	16661.779297	3152.248779	5.061728
453.187134	2398.367188	16764.892578	3208.770752	5.640915
453.545563	2464.818848	16577.757813	3171.343994	5.006222
453.903931	2386.909912	16483.044922	3158.359131	5.472771
454.262238	2377.744141	15866.649414	3119.405029	5.498303
454.620544	2331.151611	15619.174805	3033.094482	5.282523
454.978821	2368.578369	15150.958008	3021.636963	5.109053
455.337067	2315.111572	14944.730469	2957.476807	5.086181
455.695251	2296.016602	14721.696289	2978.099609	5.489301
456.053406	2357.885010	14626.984375	2915.467529	4.544608
456.411469	2303.654541	14604.833008	2907.829102	4.911518
456.769592	2265.463867	14760.651367	2971.989258	5.654380
457.127594	2272.338379	14573.516602	3001.778076	5.929836
457.485626	2273.102295	14739.264648	2981.155029	5.679797
457.843567	2279.212646	14849.253906	2964.351318	5.450568
458.201447	2334.207031	15007.362305	2984.210205	5.128977
458.559357	2355.593750	15328.163086	3130.862061	5.976213
458.917175	2348.719482	15933.101563	3133.917236	5.780151
459.274994	2378.508057	16343.268555	3214.117432	5.983700
459.632751	2490.788330	17547.033203	3335.563477	5.610795
459.990509	2585.500977	18729.414063	3525.752686	5.824187
460.348175	2671.047852	19982.064453	3660.182861	5.713905
460.705841	2778.745117	20806.982422	3844.261719	5.910264
461.063446	2756.594482	20868.085938	3802.251953	5.773448
461.421021	2693.962158	20088.234375	3770.171875	6.187150
461.778534	2634.384766	18971.541016	3538.737305	5.535557
462.135986	2603.832275	18164.195313	3471.522217	5.576283
462.493500	2457.944336	17261.369141	3323.342529	5.845932
462.850861	2519.049316	16704.552734	3302.719727	5.524446
463.208282	2437.321533	16215.710938	3249.252930	5.892789
463.565582	2405.241211	15986.567383	3167.525146	5.612736
463.922943	2348.719482	15604.661133	3103.364990	5.692885
464.280182	2356.357666	15361.770508	3081.978271	5.579374
464.637421	2354.829834	15234.214844	3112.530518	5.883050
464.994598	2357.121338	15129.571289	3149.957275	6.207391
465.351685	2364.759521	15486.272461	3085.797119	5.495080
465.708832	2376.216553	15563.416992	3178.982178	6.087461
466.065887	2356.357422	15454.192383	3138.500244	5.971543
466.422943	2322.749756	15437.387695	3145.374268	6.272568
466.779907	2349.483154	15364.061523	3127.806641	5.980397
467.136871	2375.452881	15978.166992	3188.911865	5.980123
467.493774	2394.548096	16536.511719	3233.976563	5.935728
467.850708	2473.220703	16789.333984	3269.875732	5.564744
468.207489	2440.376709	16630.460938	3299.664307	6.055550
468.564331	2421.281494	16445.619141	3306.538818	6.312293
468.921051	2387.673828	15918.588867	3187.384033	5.910245
469.277740	2367.050781	15629.104492	3182.801514	6.151014
469.634460	2363.995361	15317.468750	3151.485107	6.079371
469.991089	2338.026123	15350.312500	3136.972656	6.139940
470.347687	2360.940430	15374.754883	3185.856445	6.338772
470.704254	2315.875488	15112.004883	3052.953369	5.760163
471.060791	2354.829834	15235.742188	3126.279297	5.989090
471.417236	2335.734619	15199.078125	3078.922852	5.777566
471.773743	2325.804932	15256.364258	3129.334717	6.214192
472.130127	2367.050781	15205.953125	3169.816406	6.252603
472.486481	2295.252686	15320.524414	3125.515625	6.374247
472.842804	2330.387939	15454.191406	3157.595459	6.303108
473.199066	2355.593506	15474.050781	3160.650635	6.136828
473.555359	2399.131104	16265.359375	3271.403320	6.290623
473.911560	2403.713867	16758.781250	3337.854736	6.507394
474.267731	2433.502686	16596.853516	3305.010986	6.153264
474.623871	2395.312012	16461.658203	3282.096680	6.304300
474.979980	2416.698730	16099.612305	3283.624268	6.335825
475.336029	2417.462646	15987.332031	3257.654541	6.191599
475.692047	2421.281494	16031.632813	3279.041748	6.302264
476.048004	2445.723389	16277.581055	3279.041260	6.024627
476.403931	2448.778564	16502.904297	3272.166992	5.858696
476.759857	2493.079834	16786.279297	3341.673828	5.937047
477.115723	2482.386475	17223.177734	3405.070313	6.259392
477.471558	2532.797852	17640.982422	3528.807617	6.592518
477.827301	2516.757813	18009.140625	3508.184814	6.399448
478.183075	2579.390625	18012.958984	3578.455322	6.473323
478.538757	2573.280029	18219.953125	3654.836670	6.912374
478.894470	2622.927734	18585.054688	3625.811768	6.282897
479.250061	2582.445557	18943.281250	3748.021484	7.124183
479.605682	2612.234131	18915.021484	3660.182861	6.428034
479.961212	2603.068359	19154.093750	3700.665283	6.631595
480.316681	2678.685791	19348.101563	3722.815674	6.263746
480.672180	2681.741211	19416.080078	3761.770264	6.453969
481.027588	2709.238281	20179.126953	3853.427490	6.549493
481.382996	2761.177490	20962.035156	3999.315430	6.802635
481.738342	2830.684326	21652.519531	4053.546143	6.497038
482.093689	2956.713135	23186.251953	4197.906250	6.135548
482.448914	3043.023682	24308.291016	4477.460938	6.745447
482.804199	3161.414795	26239.968750	4747.850098	6.874067
483.159363	3293.553955	29076.000000	5001.436035	6.624205
483.514496	3657.891846	33062.332031	5690.393066	6.912226
483.869659	4146.730957	39234.687500	6451.912598	6.569723
484.224701	4663.831543	47814.582031	7583.881348	6.767089
484.579773	5255.020996	55063.917969	8847.989258	7.213507
484.934723	5510.897949	57060.515625	9174.899414	7.107718
485.289734	5286.337402	53690.582031	8746.401367	7.148265
485.644623	4800.553223	48181.207031	7929.888184	7.213665
485.999512	4462.948730	42051.625000	7020.953125	6.805253
486.354309	4227.694824	37868.996094	6390.808594	6.429935
486.709167	3989.385742	34931.375000	6013.485840	6.541597
487.063904	3886.271484	34628.906250	5969.184082	6.775322
487.418610	3921.406494	36261.937500	6205.201660	7.061712
487.773315	4076.460205	38785.566406	6570.304199	7.184985
488.127930	4307.131348	41336.699219	6874.300781	6.932756
488.482574	4393.441895	42420.546875	6996.510254	6.845297
488.837097	4417.119629	42526.714844	7036.228516	6.872571
489.191650	4237.624512	40777.589844	6779.587891	6.956666
489.546112	4047.435547	37627.628906	6388.517090	6.971614
489.900604	3831.276611	34368.449219	5989.043457	7.066034
490.254974	3611.299561	31852.453125	5593.389160	7.018444
490.609375	3504.365967	30253.796875	5417.712402	7.152849
490.963654	3470.757813	30039.166016	5313.833984	6.937097
491.317932	3473.813232	30312.611328	5354.316406	7.006659
491.672211	3586.857422	32749.931641	5729.347656	7.346586
492.026367	3970.290771	36487.261719	6236.518066	6.969368
492.380615	4026.812744	38984.921875	6567.248535	7.267086
492.734711	4024.521240	39188.863281	6574.123047	7.250532
493.088837	3895.436768	36710.292969	6184.579590	6.975935
493.442841	3655.600342	32730.076172	5823.296875	7.455668
493.796875	3447.080078	29424.298828	5310.015137	7.171419
494.150818	3296.609131	26705.896484	4992.270020	7.243539
494.504730	3072.812500	24645.130859	4630.987793	7.223031
494.858673	2992.612305	23346.654297	4470.586914	7.261332
495.212494	2838.322266	22549.998047	4333.864746	7.587090
495.566315	2832.211914	21821.322266	4228.458984	7.352883
495.920074	2847.488281	21686.890625	4281.161621	7.609972
496.273834	2739.026611	21355.398438	4137.564941	7.512411
496.627472	2799.367920	21893.119141	4187.212891	7.268582
496.981201	2866.583252	22416.330078	4268.940918	7.173278
497.334778	2829.156494	22829.552734	4369.763672	7.702883
497.688354	2878.040283	23335.958984	4479.752441	7.829302
498.041870	2858.181641	23269.507813	4427.812988	7.690002
498.395355	2842.141357	22892.947266	4337.683594	7.458764
498.748840	2878.804443	22160.453125	4306.367188	7.403738
499.102203	2784.855469	22056.576172	4290.327637	7.811820
499.455627	2717.640381	21697.585938	4251.373047	8.080807
499.808960	2799.367920	21241.587891	4226.931152	7.740734
500.162262	2748.956299	20930.716797	4097.083496	7.414723
500.515472	2675.630615	20268.494141	4074.932861	7.953806
500.868713	2647.369385	19869.783203	4008.481201	7.903142
501.221893	2631.329590	19677.302734	3967.235352	7.837076
501.574982	2607.651367	19254.916016	3975.637451	8.217483
501.928101	2573.280029	19146.455078	3941.265625	8.254215
502.281158	2564.877930	19041.812500	3842.734131	7.755425
502.634186	2592.375244	18702.679688	3830.512939	7.685377
502.987122	2566.405518	18848.570313	3862.593018	7.960781
503.340088	2548.074219	18691.224609	3835.095703	7.972555
503.692993	2583.209473	18768.367188	3815.237061	7.612082
504.045868	2569.460938	18928.005859	3893.909424	8.096371
504.398682	2580.918213	19072.365234	3899.256104	7.994071
504.751465	2597.721924	18991.400391	3834.332275	7.543215
505.104156	2566.405518	19096.042969	3932.099854	8.262095
505.456848	2557.239990	19122.779297	3932.864014	8.304131
505.809540	2562.586670	19014.314453	3906.894287	8.171225
506.162109	2588.555908	18657.615234	3887.798828	8.085370
506.514740	2608.415283	18607.966797	3849.608398	7.757674
506.867218	2545.018799	18511.728516	3813.709229	7.945848
507.219788	2509.119873	18429.236328	3831.277100	8.304947
507.572174	2505.300781	18498.742188	3799.197021	8.090168
507.924622	2505.300781	18554.500000	3751.076904	7.762232
508.276978	2522.868408	18569.013672	3776.282471	7.811309
508.629333	2540.435791	18741.634766	3887.799072	8.316442
508.981628	2561.058838	18970.015625	3918.351563	8.271658
509.333832	2563.350342	19105.974609	3965.707764	8.477237
509.686096	2562.586670	19401.568359	4039.033447	8.768028
510.038239	2593.138916	19337.408203	4005.425781	8.434449
510.390381	2604.595947	19548.984375	4006.953369	8.276235
510.742462	2629.038086	19658.972656	4104.721191	8.665231
511.094543	2611.470459	19725.423828	4033.686768	8.310273
511.446533	2648.133545	19693.343750	4036.742188	8.146621
511.798553	2645.078125	19777.361328	4042.088867	8.154259
512.150452	2682.504883	20112.677734	4066.530518	7.940402
512.502319	2616.817139	19955.330078	4126.871582	8.709249
512.854187	2655.007568	20306.685547	4161.243164	8.533102
513.205994	2672.575439	20263.910156	4107.776855	8.158570
513.557800	2642.022949	20001.160156	4174.991699	8.830904
513.909485	2619.872314	19904.156250	4085.625977	8.480268
514.261230	2590.847412	19726.953125	4086.389893	8.727435
514.612854	2606.123779	19510.792969	4045.144287	8.512562
514.964478	2600.777100	19182.353516	4043.616455	8.701461
515.316040	2622.163818	19189.228516	4022.993408	8.455509
515.667603	2579.390381	19015.843750	3954.250732	8.364702
516.019043	2564.877930	18937.935547	3928.281006	8.327113
516.370483	2590.847412	19259.498047	4003.898438	8.477297
516.721985	2572.516113	19193.048828	4007.717529	8.635111
517.073242	2610.706543	19610.853516	4029.104248	8.343444
517.424622	2624.455322	19975.955078	4087.917236	8.434210
517.775879	2623.691406	20465.556641	4197.142578	8.818871
518.127197	2745.137451	21279.779297	4291.091309	8.340888
518.478394	2754.302979	21951.931641	4470.586914	8.940083
518.829529	2797.840576	23238.955078	4599.671387	8.814738
519.180664	2891.789063	23795.773438	4606.545410	8.203012
519.531677	2875.749268	24141.015625	4750.142090	8.814340
519.882813	2913.175781	23794.248047	4737.156738	8.735092
520.233765	2901.718750	23026.615234	4626.404297	8.569910
520.584778	2825.337646	22326.203125	4544.676270	8.816730
520.935608	2758.885986	21259.156250	4345.321777	8.575204
521.286560	2710.002197	21100.283203	4244.498535	8.344061
521.637390	2677.922119	20433.476563	4210.891113	8.633743
521.988220	2638.203857	20344.875000	4231.514160	8.998362
522.338989	2658.826904	20144.757813	4165.826172	8.618353
522.689758	2644.314209	19911.794922	4220.057129	9.125494
523.040344	2588.556152	20021.781250	4214.710449	9.327903
523.390991	2639.731445	20264.673828	4210.127441	8.910078
523.741577	2663.409424	20322.724609	4228.458984	8.862459
524.092163	2696.253662	20580.128906	4252.136719	8.699922
524.442688	2737.499268	21224.785156	4403.371582	9.010908
524.793091	2738.262939	21534.126953	4437.743652	9.041780
525.143616	2777.217529	22249.820313	4604.253906	9.382600
525.494019	2814.644287	23389.427734	4663.831543	8.987639
525.844360	2910.120361	24963.640625	4890.683105	8.980710
526.194641	3064.410889	26383.568359	5163.363770	9.000980
526.544922	3055.244873	27312.361328	5391.743164	9.632217
526.895142	3148.429688	28197.617188	5397.853516	8.980027
527.245300	3179.746094	28495.501953	5542.978027	9.335024
527.595459	3250.780273	29082.111328	5594.152832	9.071822
527.945618	3306.538818	30750.273438	5876.763184	9.365433
528.295715	3485.270508	32880.542969	6277.000488	9.497207
528.645691	3789.267334	37740.675781	6913.255371	9.201350
528.995728	4165.826660	43457.800781	7850.451660	9.377552
529.345642	4391.914551	48118.578125	8580.655273	9.579374
529.695557	4579.048340	48982.449219	8770.080078	9.438538
530.045410	4352.195801	45691.187500	8316.375977	9.589446
530.395264	4074.168945	40540.808594	7496.042969	9.383574
530.745056	3826.694092	36374.218750	6812.431641	9.173470
531.094727	3559.360107	32914.152344	6327.411621	9.429641
531.444519	3370.698975	30419.544922	5927.175293	9.451332
531.794067	3286.679688	28473.353516	5597.208496	9.173616
532.143799	3177.454346	27685.099609	5460.486328	9.315591
532.493347	3081.214111	27096.203125	5348.205566	9.439902
532.842896	3111.766846	27554.490234	5449.792969	9.565326
533.192383	3186.620361	29117.248047	5724.001465	9.785267
533.541870	3340.910156	31725.662109	6087.574707	9.676549
533.891296	3516.586670	34005.636719	6479.410156	9.717664
534.240601	3576.164063	35080.320313	6655.086426	9.773067
534.589966	3469.230469	33783.371094	6368.657715	9.564603
534.939270	3423.401611	31283.414063	5979.114746	9.173410
535.288574	3279.041260	29003.437500	5732.402832	9.537101
535.637695	3120.932373	27225.287109	5452.084473	9.671082
535.986877	3085.033203	25906.947266	5184.750488	9.200443
536.336060	3023.164795	25674.750000	5164.127441	9.451712
536.685120	2981.918945	26092.554688	5135.866699	9.320158
537.034180	3080.450439	26821.994141	5331.402344	9.481069
537.383179	3046.079102	27622.468750	5465.068848	9.842738
537.732117	3077.395264	27640.798828	5462.777344	9.711122
538.080994	3041.496094	26621.111328	5335.984863	9.730815
538.429932	2969.697998	25254.654297	5174.820801	9.895118
538.778748	2909.356689	23868.335938	4983.104004	9.894315
539.127625	2874.985107	23360.400391	4799.789551	9.395974
539.476379	2822.282471	22756.226563	4773.056152	9.786191
539.825073	2828.392578	22889.892578	4743.267578	9.545024
540.173706	2758.885986	23203.054688	4873.878906	10.345214
540.522400	2840.614014	24299.890625	4958.662109	9.870081
540.870972	2897.899658	25816.818359	5207.664551	10.077984
541.219482	3050.662109	28534.458984	5634.635254	10.139671
541.567993	3305.774658	31990.703125	6089.103027	9.703104
541.916504	3508.184814	35286.550781	6708.554199	10.070907
542.264954	3683.097656	37057.828125	7016.369629	9.987412
542.613281	3598.314453	36266.519531	6962.139160	10.296938
542.961670	3523.460938	34179.785156	6512.253906	9.749352
543.309998	3450.135010	31467.494141	6197.563965	9.806167
543.658264	3230.921143	29929.939453	5924.883301	10.090117
544.006470	3129.334229	28879.701172	5833.226074	10.500401
544.354675	3106.419922	27520.880859	5508.606934	9.839197
544.702759	2978.863525	25900.835938	5280.226563	10.039987
545.050842	2842.141602	24328.914063	4948.732422	9.804129
545.398987	2787.147217	23338.250000	4867.004395	10.120416
545.746948	2745.901123	22615.685547	4734.865723	10.009995
546.094971	2700.072510	22233.015625	4671.469238	10.092676
546.442871	2719.167969	22038.244141	4642.444824	9.955325
546.790771	2684.796143	22357.517578	4828.050293	10.894548
547.138611	2684.032471	22572.912109	4731.810059	10.296094
547.486450	2665.701172	22907.460938	4831.869629	10.701483
547.834229	2747.428955	22792.890625	4826.522949	10.371894
548.181946	2663.409424	22143.650391	4740.212402	10.661075
548.529663	2677.921875	21057.509766	4541.621094	10.140049
548.877197	2577.863037	20228.013672	4457.602051	10.649989
549.224854	2507.592041	19362.613281	4295.674316	10.608603
549.572388	2475.511963	18513.255859	4134.509766	10.344334
549.919983	2407.532959	18023.652344	4025.284912	10.359501
550.267456	2357.121338	17594.390625	3945.084717	10.421575
550.614868	2305.946045	17120.064453	3872.522705	10.574890
550.962280	2348.719482	16900.849609	3929.044922	10.859754
551.309692	2276.157227	16825.232422	3876.341797	10.998531
551.656921	2292.961182	16706.841797	3764.825439	10.211436
552.004150	2309.001221	16631.226563	3812.945557	10.500772
552.351440	2300.599365	16696.912109	3845.025635	10.727930
552.698608	2317.403320	17058.958984	3948.139893	11.062174
553.045776	2344.136475	17265.951172	3880.160889	10.293818
553.392883	2348.719482	17661.607422	4013.063721	10.868912
553.739990	2352.538330	17641.748047	3995.496338	10.745866
554.086975	2312.056641	17419.478516	3887.035156	10.425198
554.434021	2345.664307	17272.062500	3878.633057	10.270185
554.780884	2298.307861	16819.123047	3916.823486	11.146176
555.127808	2290.669678	16535.748047	3780.865234	10.461126
555.474670	2210.469482	16101.903320	3731.981445	10.952879
555.821411	2207.414307	16032.397461	3699.137695	10.790055
556.168213	2202.067627	15683.334961	3701.428955	11.121813
556.514954	2256.298096	15629.104492	3621.228760	10.206763
556.861633	2252.479248	15496.964844	3651.017578	10.559402
557.208313	2228.037354	15309.067383	3637.268799	10.773092
557.554932	2262.408691	15242.616211	3579.983154	10.150643
557.901489	2219.635498	15244.907227	3630.394531	10.830937
558.247986	2194.429443	15128.807617	3579.219482	10.706275
558.594482	2190.610352	15048.608398	3506.657227	10.235239
558.940857	2296.016357	15016.528320	3592.967773	10.195748
559.287354	2226.509521	14922.579102	3592.967773	10.762845
559.633667	2147.073242	14904.247070	3521.933594	10.777155
559.979980	2181.444580	14779.746094	3493.672607	10.415912
560.326233	2179.153320	14953.895508	3521.933594	10.511212
560.672546	2163.877197	14725.515625	3555.541016	11.078681
561.018677	2169.987549	14861.473633	3524.224609	10.670437
561.364868	2179.917236	15030.277344	3574.636475	10.853541
561.710938	2174.570557	15128.808594	3576.927734	10.825470
562.057007	2195.957275	15090.617188	3663.238525	11.378983
562.403015	2156.239014	15152.485352	3657.891846	11.554512
562.748962	2183.736084	15057.773438	3596.023193	10.970040
563.094910	2146.309570	15090.617188	3585.329834	11.117012
563.440796	2193.665771	14802.660156	3621.228760	11.321783
563.786682	2167.696289	14816.409180	3634.977539	11.600242
564.132507	2127.214111	14709.476563	3566.234375	11.436895
564.478271	2187.555420	14746.902344	3607.480469	11.305724
564.823975	2189.082764	14855.363281	3608.244141	11.204247
565.169678	2155.475342	14914.176758	3592.967773	11.266762
565.515320	2215.052490	15202.898438	3621.229248	10.826867
565.860962	2181.444580	15445.790039	3641.851563	11.010019
566.206482	2226.509521	15703.958008	3783.156982	11.550016
566.551941	2242.549561	16357.780273	3803.015869	11.055196
566.897461	2295.252686	16636.572266	3875.578125	11.019386
567.242859	2293.724854	16803.845703	3949.667725	11.412330
567.588318	2327.332764	16777.876953	3925.225586	11.057666
567.933594	2304.418213	16250.083008	3832.040771	10.954103
568.278992	2242.549561	16020.175781	3786.212158	11.204126
568.624207	2268.519287	15673.406250	3767.880615	11.185184
568.969482	2214.288818	15360.242188	3750.313232	11.684390
569.314575	2205.123047	15195.258789	3665.530029	11.242431
569.659729	2209.705811	15249.489258	3622.756592	10.836459
570.004822	2212.760986	15332.746094	3647.962158	10.939046
570.349854	2227.273682	15417.528320	3704.484375	11.199258
570.694946	2187.555176	15339.620117	3683.097656	11.371161
571.039917	2169.223877	15516.059570	3677.750732	11.302505
571.384827	2197.484619	15600.843750	3652.544922	10.855937
571.729736	2235.675537	15784.921875	3757.187256	11.229493
572.074585	2273.102295	16235.570313	3795.377686	10.902624
572.419373	2292.961182	16748.087891	3896.964600	11.096433
572.764099	2348.719482	16984.107422	3958.069580	10.996293
573.108826	2304.418213	16880.990234	3944.321045	11.250264
573.453430	2263.172607	16761.835938	3976.401123	11.816459
573.798096	2304.418213	16359.308594	3907.657959	11.406988
574.142700	2247.132568	16379.166992	3845.025391	11.306885
574.487244	2303.654541	15844.500000	3857.246338	11.473373
574.831787	2263.172607	15817.002930	3832.804688	11.580728
575.176270	2267.755127	15904.077148	3780.101563	11.090574
575.520630	2227.273438	15877.343750	3867.175781	12.013875
575.865051	2239.494385	15668.058594	3787.739990	11.529494
576.209351	2215.816406	15857.484375	3801.488281	11.623739
576.553650	2231.856445	15671.877930	3768.644531	11.434417
576.897949	2215.052490	15234.979492	3744.966064	11.750554
577.242126	2175.334229	14897.374023	3660.947021	11.677473
577.586304	2147.073242	14597.959961	3576.164063	11.477823
577.930420	2148.600830	14202.304688	3621.228760	12.217223
578.274536	2154.711182	14030.448242	3518.878174	11.487009
578.618530	2140.198975	13731.034180	3444.788330	11.255353
578.962585	2141.726563	13541.608398	3422.637939	11.236181
579.306458	2036.320679	13294.133789	3403.542725	12.144650
579.650452	2089.787354	13092.487305	3389.793945	11.815341
579.994324	2008.059570	12900.770508	3272.167236	11.605079
580.338074	2014.933960	12715.928711	3313.412842	12.134188
580.681885	2014.170044	12425.679688	3277.513672	12.134106
581.025635	1992.783325	12452.414063	3273.694580	12.246238
581.369324	2018.752930	12556.291992	3240.087158	11.590318
581.713013	2011.878784	12398.182617	3221.755859	11.648774
582.056641	2012.642456	12259.168945	3272.167236	12.292212
582.400146	1979.798462	12220.979492	3153.012695	11.455850
582.743713	1996.602417	12216.395508	3198.841064	11.763825
583.087219	2021.044312	12138.487305	3165.233643	11.309075
583.430725	1954.592773	12114.043945	3201.896484	12.277274
583.774048	2027.154907	12143.070313	3173.635498	11.333434
584.117371	2021.044434	12112.518555	3192.730713	11.610655
584.460754	1999.657715	11840.600586	3201.896484	12.216702
584.804016	1965.286133	11926.148438	3162.942139	12.023618
585.147278	1941.608032	11836.018555	3136.972656	12.081211
585.490417	2001.185425	11879.554688	3129.334229	11.420395
585.833557	2018.752930	11716.863281	3143.846680	11.601165
586.176636	1939.316772	11754.290039	3107.183838	11.898830
586.519775	1948.482422	11685.546875	3117.877197	12.009727
586.862793	1997.366211	11505.288086	3111.002930	11.712725
587.205688	1985.145386	11717.627930	3127.806885	11.740700
587.548645	1933.206055	11670.270508	3102.601318	12.009731
587.891541	1956.120483	11724.502930	3170.580322	12.432558
588.234436	1953.065308	11858.932617	3093.435547	11.512069
588.577209	2078.330078	11801.647461	3239.323242	11.940299
588.919983	2005.004395	11932.257813	3139.263916	11.425713
589.262695	2010.351074	12010.930664	3157.595703	11.471781
589.605408	2018.752930	11981.906250	3211.062500	11.967191
589.947998	2016.461548	12145.362305	3217.936523	11.861850
590.290588	1992.019531	12299.652344	3230.921143	12.019264
590.633179	2036.320679	12198.828125	3253.835693	11.980458
590.975647	2012.642578	12243.893555	3206.479492	11.668533
591.318115	2021.808228	12082.729492	3205.715576	11.767385
591.660583	1992.019531	11954.409180	3176.690674	11.891436
592.002930	1959.939453	11894.832031	3156.068115	12.039674
592.345215	1959.939453	11757.346680	3237.031982	13.035005
592.687622	1979.034790	11732.140625	3169.052734	12.201426
593.029846	1948.482300	11652.703125	3217.936523	13.081465
593.372009	1963.758667	11528.203125	3109.475342	11.978915
593.714172	1972.924316	11634.372070	3164.469727	12.332991
594.056335	2008.059570	11703.114258	3172.871826	12.014499
594.398376	1991.255859	11797.828125	3165.997314	11.979124
594.740417	2002.712891	11916.981445	3204.951904	12.126351
595.082458	1977.507202	12101.824219	3250.016602	12.568841
595.424316	2043.194946	12192.718750	3261.473877	12.003312
595.766235	1980.562500	12250.768555	3271.403320	12.568791
596.108093	1990.491821	12390.545898	3314.176758	12.727674
596.449951	2001.949219	12450.122070	3285.151611	12.281596
596.791687	2056.943604	12914.519531	3402.779053	12.395358
597.133484	2022.572144	13430.856445	3457.009521	12.573647
597.475159	2076.802734	13920.458008	3560.887695	12.530633
597.816772	2162.349365	14007.534180	3578.455322	11.955119
598.158386	2114.993164	13907.473633	3534.154297	12.034458
598.499939	2036.320679	13359.821289	3523.460938	13.133220
598.841492	2050.069092	12738.843750	3355.422607	12.212378
599.182922	2003.476685	12270.627930	3278.277588	12.416306
599.524353	1973.688110	11761.929688	3185.856445	12.383924
599.865723	1972.924316	11554.936523	3127.042969	12.044639
600.207153	1959.175781	11104.286133	3094.199219	12.411261
600.548401	1961.467163	11094.358398	3051.425781	11.934431
600.889709	1952.301392	10961.454102	3015.526611	11.801612
601.230896	1934.733765	10941.594727	3025.456055	12.109904
601.572083	1911.055542	10823.967773	3068.993408	12.991690
601.913208	1923.276489	10945.414063	3059.063721	12.588893
602.254272	1897.307007	10966.800781	3036.149414	12.556846
602.595398	1959.175781	11034.780273	3100.309570	12.573640
602.936340	1945.427124	11239.481445	3039.968506	11.776791
603.277283	1953.828979	11527.438477	3246.961182	13.507258
603.618225	1941.608032	11956.700195	3215.645264	12.721174
603.959106	2024.863403	12437.901367	3275.222412	12.007629
604.299927	2047.777710	12716.692383	3395.904541	12.636025
604.640686	2027.154907	12873.273438	3395.140625	12.612676
604.981445	2062.290283	13406.414063	3547.139404	13.089148
605.322144	2105.063721	13763.113281	3626.575439	13.051168
605.662781	2078.330322	13691.316406	3576.164063	12.897921
606.003418	2085.968506	13591.256836	3548.666748	12.713269
606.343933	2105.063721	13081.793945	3424.929443	12.024216
606.684509	2050.833008	12568.512695	3306.538818	11.939000
607.024963	2000.421509	12065.925781	3183.565186	11.754440
607.365356	1969.105103	11587.780273	3198.077393	12.776939
607.705811	1971.396851	11327.320313	3093.435303	11.992813
608.046143	1921.749023	11168.448242	3063.646729	12.349247
608.386414	1940.844238	10946.942383	3056.772461	12.390807
608.726746	1933.969849	10811.747070	3086.561279	12.982882
609.066956	1904.945190	11004.992188	3008.652344	12.128588
609.407104	1924.804199	11208.165039	3151.485107	13.213758
609.747253	1962.994751	11826.852539	3199.605225	12.536784
610.087341	1990.492065	11983.433594	3275.222656	12.856380
610.427429	2047.014038	12098.004883	3292.026367	12.386961
610.767456	1951.537598	11884.137695	3245.433594	13.026761
611.107361	1957.648071	11627.497070	3150.721436	12.338077
611.447327	1950.773804	11178.377930	3114.822021	12.614847
611.787170	1929.387085	10769.737305	3008.652344	12.208399
612.126953	1900.362305	10465.741211	2946.019775	12.207953
612.466797	1879.739258	10196.116211	2941.436768	12.766347
612.806519	1846.895508	10013.565430	2907.065430	12.981668
613.146240	1856.825073	9913.504883	2904.010010	12.997724
613.485840	1853.769653	9702.694336	2837.558594	12.534060
613.825500	1904.945190	9586.593750	2857.417969	12.399328
614.165039	1821.689575	9360.506836	2719.931885	11.914897
614.504639	1862.935547	9305.511719	2797.840088	12.561572
614.844055	1847.659180	9187.884766	2774.925781	12.632671
615.183472	1786.554321	9074.077148	2784.091797	13.688293
615.522888	1794.192383	9122.196289	2716.112549	12.580782
615.862244	1767.459106	8977.836914	2690.906738	12.807201
616.201538	1765.931519	8966.378906	2713.821289	13.164318
616.540771	1709.409546	8987.002930	2657.299072	13.024767
616.880066	1794.192383	8996.167969	2716.876221	12.811538
617.219177	1779.680054	8919.787109	2693.962158	12.804880
617.558350	1785.790649	8864.028320	2705.419189	12.992337
617.897400	1728.504761	8910.622070	2701.600342	13.548868
618.236450	1814.815430	9065.674805	2708.474609	12.324873
618.575439	1794.192505	8983.183594	2676.394287	12.271565
618.914429	1782.735352	8981.655273	2693.962158	12.657826
619.253357	1804.122070	8975.545898	2731.388672	12.930021
619.592224	1713.228516	8890.762695	2698.544922	13.727784
619.931030	1763.640015	8915.967773	2689.379150	12.943187
620.269836	1836.202148	8870.902344	2732.916748	12.747020
620.608582	1793.428711	8822.019531	2713.821289	13.094980
620.947266	1749.127563	8840.350586	2691.670654	13.291686
621.285950	1791.901001	8870.903320	2679.449463	12.537762
621.624512	1766.695313	8714.321289	2663.409424	12.906770
621.963074	1795.720093	8742.582031	2613.761719	11.775701
622.301575	1780.443848	8660.854492	2700.836182	13.376997
622.640015	1733.851440	8640.996094	2646.605713	13.214640
622.978455	1733.087524	8689.879883	2641.259033	13.054458
623.316833	1779.680054	8647.871094	2700.072510	13.400799
623.655273	1830.091675	8706.684570	2700.072510	12.651336
623.993530	1801.066772	8663.147461	2659.590576	12.511129
624.331787	1743.017212	8661.619141	2703.127686	13.877233
624.669983	1730.796265	8618.082031	2661.882080	13.518909
625.008179	1763.640015	8769.316406	2630.565674	12.374618
625.346313	1762.876343	8812.853516	2625.218994	12.231851
625.684326	1811.760132	8986.239258	2707.710693	12.488023
626.022400	1759.820923	9081.715820	2685.560303	12.643439
626.360413	1820.162109	9109.211914	2740.554688	12.627058
626.698364	1827.800171	9431.540039	2783.328125	12.566552
627.036255	1842.312500	9649.226563	2827.629150	12.621078
627.374146	1818.634399	9847.817383	2916.994873	13.679605
627.711914	1828.563965	9943.293945	2889.497803	13.074173
628.049744	1844.604004	9794.350586	2860.472900	12.778632
628.387451	1859.880249	9756.160156	2849.015625	12.526600
628.725098	1845.367798	9504.866211	2831.447998	12.873953
629.062744	1888.904907	9431.540039	2847.488281	12.708865
629.400330	1849.186890	9323.079102	2749.720459	12.049058
629.737915	1777.388672	9132.125977	2800.131836	13.905910
630.075378	1773.569702	9101.574219	2764.232666	13.518865
630.412903	1797.247681	9006.097656	2683.268555	12.290738
630.750244	1801.066772	8958.742188	2726.805908	12.933517
631.087708	1758.293335	8712.793945	2640.495361	12.685340
631.424988	1822.453491	8805.214844	2726.805908	12.951215
631.762268	1805.649536	8677.659180	2713.057373	13.204403
632.099487	1768.223022	8635.649414	2645.078125	12.768322
632.436707	1784.263062	8609.679688	2596.958008	11.906892
632.773926	1755.238159	8537.881836	2638.967773	13.029280
633.110962	1785.026855	8512.675781	2634.384766	12.624885
633.448059	1794.192383	8445.459961	2647.369629	12.827288
633.785095	1824.744995	8652.454102	2706.947021	12.920908
634.122131	1755.238159	8646.342773	2627.510498	12.657947
634.458984	1762.112427	8689.879883	2687.851563	13.362734
634.795898	1775.860962	8716.613281	2616.053223	12.105205
635.132690	1751.419067	8695.226563	2661.881836	13.111866
635.469543	1742.253296	8503.510742	2648.897217	13.409398
635.806274	1744.544800	8472.194336	2690.143066	14.055404
636.142944	1721.630371	8415.671875	2580.917969	12.836604
636.479675	1724.685669	8266.728516	2632.093506	13.870405
636.816223	1742.253296	8307.973633	2606.887451	13.168916
637.152893	1731.559937	8167.433105	2636.676514	14.063618
637.489380	1756.765747	8082.650391	2568.697021	12.835063
637.825867	1739.961914	8134.589355	2615.289551	13.688485
638.162292	1717.047485	8061.263184	2556.476318	13.231404
638.498779	1756.001953	7959.676270	2587.792236	13.408027
638.835083	1713.992310	7848.923828	2585.500977	14.205679
639.171387	1726.213257	7835.938965	2562.586670	13.689214
639.507629	1743.780884	7768.724121	2509.119873	12.702841
639.843872	1730.032227	7716.020996	2496.898682	12.811024
640.180054	1712.464722	7675.538574	2519.049561	13.526327
640.516174	1749.891602	7575.479980	2546.546631	13.675100
640.852356	1696.424805	7473.128906	2470.928955	13.407371
641.188354	1706.354126	7567.841309	2503.773193	13.604381
641.524353	1742.253296	7587.700684	2513.702881	13.197443
641.860291	1729.268555	7465.490723	2487.733154	13.222371
642.196228	1675.801758	7308.909668	2469.401611	14.088135
642.532043	1670.455078	7449.450684	2493.843506	14.247951
642.867859	1668.163696	7385.290527	2435.030029	13.413491
643.203674	1688.786499	7388.345703	2448.014893	13.320827
643.539368	1681.148438	7375.360840	2456.416992	13.615027
643.875061	1722.394165	7291.341797	2414.407227	12.426280
644.210754	1703.298950	7286.758301	2360.940430	11.778387
644.546387	1671.982788	7302.798828	2371.633789	12.425393
644.881897	1734.615234	7246.277344	2393.784424	11.959536
645.217468	1724.685547	7145.453613	2405.241455	12.554603
645.552856	1705.590332	7227.945313	2427.391846	13.070539
645.888306	1719.338867	7218.015625	2435.030029	13.015698
646.223694	1706.354126	7172.950684	2455.653076	13.706863
646.558960	1686.495117	7108.027344	2452.597656	14.130738
646.894287	1707.881836	7237.111328	2406.769287	12.639871
647.229553	1731.559937	7251.623535	2419.753906	12.467138
647.564758	1679.620728	7374.597168	2463.291016	13.760729
647.899902	1657.470337	7322.658203	2480.094971	14.520695
648.235046	1707.118042	7331.060059	2410.588135	12.508488
648.570068	1694.897095	7223.362793	2488.496826	14.354792
648.905090	1679.620728	7229.472656	2448.014648	13.845304
649.240051	1670.455078	7239.402344	2363.231689	12.439992
649.574951	1725.449585	7276.829590	2494.607422	13.855255
649.909912	1740.725708	7151.564453	2474.748291	13.565782
650.244690	1723.921875	7259.261719	2428.919678	12.736305
650.579468	1671.982788	7190.518066	2399.894775	13.190311
650.914246	1687.258911	7188.227051	2391.492920	12.802001
651.248962	1670.455078	7175.242188	2460.235596	14.347158
651.583557	1726.213257	7219.543457	2419.753662	12.625136
651.918274	1746.836304	7203.503418	2453.361572	12.947927
652.252808	1736.906616	7172.950684	2495.371094	13.952508
652.587341	1707.118164	7121.775391	2433.502686	13.415153
652.921814	1717.811401	7112.609863	2424.336670	13.096416
653.256226	1768.223022	7161.494141	2440.376709	12.462821
653.590637	1734.615234	7124.066895	2457.944336	13.421201
653.924927	1678.093140	7116.429199	2425.864502	13.750003
654.259338	1643.721680	6970.541016	2402.186279	14.238602
654.593506	1697.952271	7035.464844	2359.412842	12.392674
654.927795	1694.133179	7009.494629	2398.367188	13.249034
655.261902	1707.881836	6831.527344	2428.155518	14.057836
655.596069	1676.565552	6881.174316	2391.492920	13.736428
655.930115	1679.620728	6819.306152	2377.744141	13.582998
656.264160	1647.540649	6839.929199	2336.498535	13.268612
656.598145	1672.746460	6771.949707	2402.949951	14.319953
656.932068	1694.133179	6837.638184	2450.306396	14.701516
657.265991	1684.203613	6758.964844	2454.888916	15.186632
657.599792	1743.017212	6956.028809	2415.170898	12.893769
657.933655	1706.354126	6857.496582	2441.140625	14.264534
658.267395	1743.017212	7061.435059	2469.401611	13.657904
658.601135	1750.655273	7157.674316	2443.431885	12.812543
658.934814	1763.640015	7298.215332	2503.009277	13.359097
659.268433	1781.971558	7596.102051	2509.883545	12.519705
659.601990	1777.388672	7844.341309	2609.942871	13.722774
659.935547	1851.478394	7988.701172	2610.706787	12.370879
660.269043	1830.091675	8087.232910	2642.022705	12.976070
660.602478	1790.373413	8039.112793	2626.746582	13.384670
660.935913	1772.805786	7969.605469	2639.731445	13.989893
661.269165	1827.800171	7677.066406	2619.108643	13.528337
661.602539	1770.514282	7539.580566	2576.335205	13.967960
661.935791	1801.830566	7364.667480	2519.049316	12.893040
662.269043	1801.830566	7279.884277	2503.009277	12.799778
662.602173	1765.931519	7004.148438	2470.929199	13.458735
662.935364	1760.584839	7015.605957	2403.713867	12.238372
663.268433	1809.468750	6905.617188	2382.327148	11.241007
663.601440	1767.459106	6775.769043	2359.412842	11.819430
663.934448	1776.624878	6671.890625	2390.729004	12.544858
664.267395	1754.474243	6587.107910	2391.492920	13.181604
664.600342	1759.820923	6601.619629	2331.915771	11.815750
664.933105	1731.559937	6471.008301	2354.066162	13.134572
665.265991	1732.323853	6454.204590	2343.372803	12.940796
665.598694	1731.559937	6442.747559	2338.026123	12.872894
665.931458	1731.559937	6412.195313	2352.538330	13.266969
666.264099	1737.670410	6402.265625	2362.468018	13.394465
666.596802	1739.198120	6419.068848	2348.719482	13.024321
666.929321	1731.559937	6361.783691	2372.397461	13.840315
667.261841	1775.097168	6341.924316	2326.568848	12.075598
667.594360	1745.308594	6408.376465	2354.066162	13.054873
667.926819	1766.695313	6374.768066	2410.588135	13.973148
668.259216	1769.750610	6403.792969	2331.915771	12.131205
668.591553	1775.097290	6407.611816	2373.925049	12.926624
668.923950	1764.403809	6379.351074	2292.961182	11.453161
669.256165	1768.986694	6448.093750	2323.513672	11.851129
669.588440	1798.775391	6467.189453	2368.578613	12.205499
669.920593	1782.735352	6526.766113	2315.875488	11.238126
670.252686	1823.981079	6485.520996	2362.468018	11.551696
670.584778	1833.146851	6502.324219	2334.970947	10.747592
670.916809	1862.171753	6451.149902	2398.367188	11.684420
671.248840	1781.207642	6432.817871	2322.749756	11.642035
671.580750	1878.211548	6399.974121	2371.633789	10.912166
671.912598	1848.422974	6407.611816	2401.422363	12.129337
672.244507	1833.146851	6366.366699	2331.151611	10.985675
672.576294	1817.106812	6247.976074	2299.835693	10.894677
672.908142	1842.312500	6235.755371	2387.673584	12.413069
673.239746	1827.800171	6299.150879	2372.397461	12.179705
673.571533	1838.493530	6222.770020	2368.578369	12.090590
673.903137	1855.297363	6207.493652	2393.020508	12.355213
674.234741	1868.282227	6264.779785	2370.869873	11.431546
674.566223	1836.202148	6252.558594	2324.277344	11.051536
674.897766	1873.628906	6158.609375	2380.799561	11.836008
675.229187	1873.628906	6154.790527	2373.161377	11.668153
675.560608	1902.653687	6105.906738	2354.829834	10.757767
675.891968	1888.141235	6161.665527	2305.182129	9.758711
676.223267	1904.944946	6121.946777	2324.277344	9.943851
676.554565	1903.417480	6104.378906	2357.121338	10.800000
676.885681	1929.387085	6208.257324	2402.949951	11.067474
677.216919	1925.567993	6195.271973	2380.799561	10.661900
677.548035	1955.356567	6225.061035	2435.030029	11.234347
677.879150	1924.804199	6188.398438	2350.247070	9.978503
678.210144	1901.890015	6129.584473	2357.885010	10.785903
678.541138	1997.366211	6263.251953	2393.784424	9.292752
678.872070	1949.246094	6281.583496	2417.462402	10.807476
679.202942	1923.276489	6464.134277	2441.904297	11.421362
679.533875	2056.179688	6475.591309	2444.196045	8.779819
679.864685	2076.038818	6572.595215	2456.416748	8.459316
680.195435	2077.566650	6616.896484	2535.089355	10.079080
680.526123	2114.229248	6754.382324	2595.430420	10.370372
680.856812	2140.198975	6921.656738	2551.893311	8.610226
681.187378	2175.334229	6962.902832	2607.651367	9.029994
681.518066	2189.083008	7011.786621	2619.872314	8.932528
681.848572	2201.303955	6933.877441	2577.862549	7.956741
682.179016	2229.564697	6935.404785	2616.053467	8.212960
682.509460	2195.957031	6883.466309	2597.721924	8.570968
682.839844	2243.313721	6910.199707	2618.344727	8.036001
683.170227	2199.012451	6912.491699	2651.952393	9.609460
683.500488	2237.966797	6823.125488	2564.114258	7.113112
683.830811	2251.715576	6737.578613	2638.967773	8.632724
684.161011	2209.705811	6591.690918	2538.908447	7.512637
684.491150	2213.524658	6493.158691	2568.697021	8.299129
684.821289	2201.303955	6418.305176	2506.064453	7.226949
685.151367	2215.052490	6435.109375	2512.938721	7.058821
685.481323	2278.448975	6404.556641	2530.506592	6.108848
685.811279	2197.484619	6298.386719	2483.914063	6.984547
686.141296	2179.917236	6276.236328	2506.828369	7.980607
686.471130	2276.921143	6314.427246	2540.435791	6.526669
686.801025	2315.111572	6277.000488	2524.395996	5.282441
687.130798	2266.991455	6328.175781	2544.255127	6.827163
687.460571	2264.700195	6286.929688	2545.782715	6.988227
687.790283	2360.940186	6428.234863	2621.400146	6.403764
688.119934	2410.588135	6502.324219	2636.676270	5.525482
688.449585	2376.980225	6542.806641	2546.546631	4.070415
688.779053	2431.974854	6664.252441	2577.098877	3.428982
689.108643	2403.713867	6545.098145	2575.571289	4.149758
689.438110	2460.235840	6475.591309	2600.777100	3.500095
689.767578	2426.628174	6460.314941	2618.344727	4.752886
690.096863	2427.391846	6353.381348	2567.933350	3.579773
690.426270	2407.532959	6273.945313	2548.074219	3.634927
690.755554	2422.809326	6210.548828	2542.727539	3.165957
691.084839	2417.462646	6209.785156	2527.451172	2.900295
691.413940	2378.508057	6076.118652	2573.280029	5.267509
691.743103	2441.140625	6011.193848	2604.596191	4.578519
692.072205	2465.582520	6062.369141	2528.978760	1.762580
692.401245	2479.331299	6069.243652	2590.847656	3.106381
692.730347	2408.296631	6031.816895	2572.515869	4.532036
693.059265	2415.934814	5971.476074	2509.119873	2.620840
693.388184	2470.165283	5851.557129	2475.511963	0.158121
693.717041	2439.613037	5918.009277	2482.386475	1.229689
694.045898	2431.210938	5899.677734	2521.340820	2.598551
694.374634	2460.235840	5918.009277	2535.089111	2.164783
694.703430	2511.411133	5956.963379	2444.195557	-1.950793
695.032104	2478.567383	5908.843750	2556.476074	2.271207
695.360718	2509.883789	5901.968750	2530.506348	0.607961
695.689331	2574.807373	5989.807129	2578.626709	0.111840
696.017822	2611.470459	6042.510254	2594.666748	-0.489756
696.346375	2550.365479	5980.642090	2593.138916	1.246938
696.674805	2603.832275	6006.611328	2602.304688	-0.044892
697.003296	2619.872314	6103.615234	2547.310303	-2.082875
697.331543	2645.842041	6273.945313	2692.434326	1.284205
697.659973	2704.655518	6330.467285	2664.173584	-1.116493
697.988159	2756.594482	6564.193359	2748.192627	-0.220660
698.316406	2913.939697	6812.431641	2839.085938	-1.920070
698.644592	2877.276611	7083.585449	2880.332031	0.072639
698.972717	3062.119141	7379.179688	3058.300049	-0.088465
699.300842	3175.927002	7657.207031	3102.600830	-1.636277
699.628845	3175.927002	7783.235840	3167.525146	-0.182359
699.956909	3301.192139	7870.311035	3107.947998	-4.229352
700.284790	3203.424072	7763.376953	3127.806641	-1.658294
700.612671	3188.147705	7575.479004	3090.380127	-2.228407
700.940491	3175.927002	7363.903809	3071.284912	-2.498631
701.268372	3195.022217	7198.920410	2978.099854	-5.417779
701.596069	3062.119141	6843.748047	2937.617920	-3.292264
701.923828	3036.149414	6702.442871	2882.623291	-4.187502
702.251465	2915.467529	6597.037109	2803.187256	-3.049793
702.579102	2918.522461	6356.437012	2819.227295	-2.888238
702.906677	2932.271240	6323.593262	2838.322266	-2.770276
703.234192	2843.668945	6110.489746	2716.876465	-3.881219
703.561707	2869.638672	6037.927246	2644.314453	-7.111859
703.889099	2902.482422	5922.591797	2681.740967	-7.309055
704.216553	2871.929932	5836.281250	2672.575439	-6.725063
704.543823	2833.739502	5844.683594	2622.927734	-7.001517
704.871216	2805.478516	5784.342285	2675.630615	-4.358974
705.198364	2800.131836	5842.392090	2659.590576	-4.619633
705.525513	2768.051758	5801.145996	2658.826904	-3.601103
705.852722	2836.794922	5764.482910	2655.771484	-6.183153
706.179810	2789.438477	5707.197266	2566.405518	-7.643982
706.506897	2849.779541	5757.608887	2681.741211	-5.778824
706.833862	2802.423096	5675.880859	2638.203857	-5.715039
707.160889	2839.849854	5724.001465	2568.697021	-9.401476
707.487793	2874.985352	5692.685059	2612.998047	-9.297915
707.814697	2912.412109	5781.286621	2687.851563	-7.827479
708.141479	2852.071045	5794.271484	2632.857178	-7.450677
708.468323	2849.015625	5852.321777	2710.765869	-4.603252
708.794983	2948.311279	5782.814453	2677.158203	-9.566159
709.121643	2945.255859	5926.410645	2735.971680	-7.020238
709.448303	2975.044678	5858.431641	2710.001953	-9.192062
709.774902	2970.461670	5934.812988	2668.756104	-10.177794
710.101440	3069.757080	6008.139160	2780.272705	-9.851829
710.427979	3042.260010	5984.460449	2780.272705	-8.904469
710.754395	3060.591553	6098.268066	2717.640381	-11.289918
711.080811	3170.580078	6123.474121	2736.735596	-14.692179
711.407166	3130.862061	6267.070801	2830.684326	-9.571357
711.733459	3141.555420	6289.984863	2806.242188	-10.650174
712.059753	3169.816406	6451.913574	2875.749023	-8.959741
712.385986	3235.504150	6495.449707	2933.798828	-9.254919
712.712097	3281.333008	6476.355469	2856.653564	-13.291908
713.038269	3282.096680	6368.657715	2893.316650	-12.595897
713.364319	3211.826172	6233.463379	2861.236572	-11.602637
713.690369	3263.764893	6196.036621	2828.392822	-14.847603
714.016296	3178.982422	6201.382813	2828.392822	-11.599708
714.342285	3289.735107	6076.117676	2815.407959	-17.023045
714.668213	3234.740234	6110.489746	2820.754883	-14.395738
714.994019	3222.519531	6079.937012	2817.699463	-14.167340
715.319824	3185.856445	6071.535156	2848.251953	-11.699309
715.645508	3242.378174	6015.776855	2814.644287	-15.422733
715.971252	3193.494873	6087.574707	2809.297607	-13.275282
716.296875	3210.298584	6066.187988	2836.794922	-13.078365
716.622498	3252.307861	6117.363770	2847.488281	-14.129553
716.948059	3197.313721	6072.298828	2843.669189	-12.300743
717.273621	3286.679688	6067.716309	2849.015625	-15.737443
717.599060	3219.464111	6020.359863	2856.654053	-12.953358
717.924438	3250.780518	5969.184082	2823.809814	-15.706671
718.249817	3180.509766	5885.165527	2760.413818	-15.532326
718.575134	3204.951904	5811.839844	2771.870850	-16.612953
718.900391	3175.163086	5658.312988	2665.701172	-20.516760
719.225647	3085.033447	5573.530762	2711.529541	-15.009214
719.550842	3072.812500	5538.395020	2699.308838	-15.148699
719.875977	3133.917236	5401.672363	2595.430420	-23.745369
720.201111	2983.446533	5427.642578	2648.897217	-13.687499
720.526062	3017.054443	5362.718262	2577.098877	-18.756123
720.851135	3038.440674	5261.895020	2538.908447	-22.466494
721.176025	3050.661865	5348.970215	2574.807617	-20.704544
721.500977	3059.827881	5313.070801	2550.365479	-22.610186
721.825745	3021.636963	5181.695313	2545.018799	-22.065060
722.150574	3059.063721	5195.443848	2588.556152	-22.023588
722.475342	2952.130127	5190.097168	2541.963623	-18.327639
722.800049	2994.139893	5190.097168	2513.702637	-21.878262
723.124695	2996.431396	5109.896973	2509.883789	-23.021317
723.449341	2989.556885	5034.279785	2533.561768	-22.301071
723.773865	3013.998779	5079.344238	2561.058838	-21.930470
724.098389	3039.968750	5149.614746	2548.838135	-23.280239
724.422913	3007.124756	5062.540527	2527.451172	-23.337059
724.747253	2998.722656	5107.604980	2535.853271	-21.948565
725.071716	3019.345703	5147.323730	2492.315674	-24.766705
725.395996	2991.084717	5086.218750	2557.239746	-20.707266
725.720276	3039.968506	5141.976563	2513.702881	-25.036327
726.044556	3111.002930	5099.203613	2548.073975	-28.313488
726.368713	3064.410400	5134.338867	2524.395752	-26.088566
726.692871	3039.204834	5139.685547	2592.375244	-21.272730
727.016968	3114.822021	5263.423340	2551.893311	-26.199776
727.341003	3137.736328	5121.354004	2615.289795	-26.338066
727.664978	3141.555420	5304.668457	2620.636230	-24.081923
727.988953	3196.549805	5334.457520	2586.264648	-28.545908
728.312866	3226.338623	5395.562012	2664.173584	-25.915497
728.636780	3216.408936	5442.154785	2702.364014	-23.095400
728.960510	3174.399414	5458.194824	2637.440186	-23.511705
729.284241	3244.669922	5498.677246	2648.897217	-26.431711
729.607971	3257.654541	5423.059082	2686.323975	-26.384472
729.931580	3260.709961	5442.154785	2674.866943	-26.855734
730.255310	3250.780518	5386.396484	2673.339111	-27.038635
730.578857	3295.081299	5418.476563	2676.394531	-29.136675
730.902344	3256.890869	5327.583496	2673.339111	-28.181477
731.225830	3282.096680	5487.220215	2665.701172	-27.952879
731.549316	3280.569092	5359.663086	2666.464844	-29.537109
731.872681	3363.060547	5507.078613	2726.805908	-29.675806
732.195923	3389.793945	5623.941895	2717.640381	-30.085455
732.519226	3372.226563	5568.183594	2715.348633	-29.913059
732.842468	3363.060547	5547.560547	2809.297607	-25.349642
733.165710	3432.567383	5563.601074	2724.514404	-33.225800
733.488770	3386.739014	5564.364746	2742.845947	-29.568583
733.811951	3384.447266	5535.339844	2731.388672	-30.362213
734.134949	3418.819092	5585.751465	2724.514404	-32.040901
734.458008	3431.039795	5488.747559	2684.032471	-36.302887
734.780884	3356.950195	5417.712891	2690.906982	-32.320229
735.103821	3362.296875	5384.869141	2687.087646	-33.383690
735.426697	3387.502686	5364.246094	2689.379150	-35.316853
735.749451	3269.875732	5154.961914	2596.194092	-35.737446
736.072205	3242.378662	5098.439453	2590.847412	-35.102905
736.394897	3183.565186	5136.630371	2509.119873	-34.532658
736.717651	3182.801025	5086.218750	2552.657227	-33.105911
737.040222	3164.469727	4954.079590	2550.365479	-34.314980
737.362793	3183.565186	4984.631348	2544.255127	-35.496201
737.685303	3143.083008	5010.601563	2531.270264	-32.760731
738.007813	3159.123047	4902.140137	2518.285400	-36.765999
738.330200	3188.147705	4924.290527	2537.380615	-37.483501
738.652649	3177.454346	4951.788086	2564.877930	-34.524307
738.974976	3219.464111	4980.048828	2639.731445	-32.928417
739.297180	3292.026367	5105.313965	2601.541016	-38.079197
739.619446	3310.357666	5010.601563	2609.178955	-41.239891
739.941650	3335.563477	5155.725586	2652.716064	-37.515747
740.263794	3258.418701	5009.837402	2575.571289	-38.988243
740.585815	3363.824463	5105.313965	2639.731445	-41.578949
740.907959	3254.599609	4973.937988	2569.460938	-39.848972
741.229858	3141.555420	4899.085449	2654.243896	-27.727066
741.551880	3144.610596	4825.759277	2546.546631	-35.574722
741.873779	3195.786133	4870.824219	2491.552002	-42.042873
742.195557	3134.681396	4803.608887	2520.576904	-36.796356
742.517395	3178.982422	4753.197266	2541.199951	-40.514320
742.839172	3096.490479	4693.619629	2489.260498	-38.020092
743.160828	3063.646729	4647.027344	2499.954102	-35.600578
743.482483	3161.414307	4610.364746	2481.622803	-46.916134
743.804138	3070.520752	4495.792969	2464.818604	-42.497295
744.125671	3017.818115	4523.290039	2448.014648	-37.848827
744.447266	3039.968750	4557.661133	2386.146240	-43.080040
744.768677	3017.053955	4500.375488	2402.949951	-41.400600
745.090088	3056.772461	4423.230469	2451.833984	-44.270550
745.411438	2995.667236	4444.617188	2386.909912	-42.013687
745.732727	3003.305664	4381.984863	2392.256592	-44.321339
746.054016	3041.496094	4372.818848	2357.121338	-51.405624
746.375244	2966.642578	4413.300781	2355.593750	-42.238644
746.696472	3016.290283	4323.171387	2380.035889	-48.684948
747.017578	3033.858154	4278.870605	2300.599365	-58.895699
747.338684	2941.436768	4281.925293	2325.041260	-45.982903
747.659668	2940.673096	4310.186523	2413.643311	-38.482994
747.980713	2952.130127	4284.980957	2348.719482	-45.272182
748.301575	2970.461670	4283.453125	2319.694580	-49.563694
748.622437	2897.899658	4281.161621	2347.191650	-39.812271
748.943359	2973.516846	4386.567871	2324.277588	-45.945919
749.264099	2942.200928	4313.241699	2391.492920	-40.167149
749.584900	3011.707764	4366.708496	2348.719482	-48.928997
749.905579	3002.541748	4330.045410	2336.498291	-50.172626
750.226257	2957.476807	4328.518066	2401.422119	-40.557110
750.546814	2969.697998	4276.578613	2299.835449	-51.256599
750.867432	3007.888428	4237.624512	2363.995361	-52.360264
751.187866	2936.854248	4233.041504	2376.216553	-43.252831
751.508301	2978.863525	4178.047363	2376.980469	-50.191059
751.828735	2962.059814	4167.354004	2358.648926	-50.063370
752.149048	2981.155029	4207.071777	2297.544189	-55.763237
752.469421	3001.013916	4154.369141	2339.553711	-57.350952
752.789612	2863.528076	4090.972656	2296.780273	-46.172985
753.109924	2968.934326	4107.776855	2328.096436	-56.270985
753.429993	2874.985352	4042.852783	2278.448730	-51.079140
753.750122	2907.829346	4042.852539	2281.503906	-55.181732
754.070190	2939.909424	4029.104248	2273.865967	-61.150074
754.390259	2919.286377	4068.822266	2272.338135	-56.279083
754.710205	2902.482422	3969.526611	2328.860352	-53.758041
755.030151	2939.909180	4022.993408	2312.056641	-57.968948
755.349976	2884.151123	3937.446533	2292.197266	-56.200176
755.669800	2908.593018	3966.471680	2270.046875	-60.361000
755.989624	2904.010498	3950.431641	2274.629639	-60.146038
756.309326	2854.362549	3867.940186	2283.795410	-56.292397
756.629028	2832.211914	3950.431641	2283.795410	-49.043716
756.948608	2872.693604	3903.838867	2226.509521	-62.666637
757.268250	2852.834717	3876.341797	2228.037109	-61.044777
757.587769	2850.543213	3830.512939	2273.102295	-58.924362
757.907288	2851.307373	3932.864014	2216.580078	-58.686459
758.226685	2904.010498	3875.578125	2257.062256	-66.588081
758.546021	2884.914795	3968.762939	2325.805176	-51.585606
758.865417	2968.170166	3949.667725	2256.298096	-72.529175
759.184692	2971.225586	3969.526611	2250.951416	-72.150002
759.503967	2943.728271	3942.029541	2261.644775	-68.324417
759.823120	3001.778076	3990.149658	2259.353516	-75.115936
760.142273	2955.185547	3859.537842	2220.399170	-81.250015
760.461365	2938.381592	3942.029541	2234.911377	-70.091331
760.780396	2920.050049	3960.361084	2180.680908	-71.071930
761.099426	2936.854248	3941.265625	2208.942139	-72.471512
761.418457	2952.893799	3938.210693	2234.911377	-72.868172
761.737244	2978.863525	3960.361084	2200.540039	-79.299583
762.056152	2956.713135	3954.250732	2255.534424	-70.290955
762.374939	3001.014404	4008.481201	2201.303955	-79.378342
762.693665	2959.768311	3936.682861	2225.745850	-75.136810
763.012451	3047.606445	4105.484863	2233.383789	-76.967506
763.331055	3120.168701	4129.163086	2307.473633	-80.545052
763.649719	3219.464111	4378.929688	2375.452881	-72.793129
763.968201	3522.697266	4707.368652	2485.441650	-87.556396
764.286804	3722.052002	5264.187012	2669.520264	-68.251595
764.605225	3942.793701	5434.517090	2734.444092	-81.003601
764.923645	3959.597412	5572.767090	2790.966064	-72.443176
765.242004	3903.839111	5344.387207	2803.186768	-76.405106
765.560303	3796.905518	5163.363770	2708.474365	-79.653450
765.878601	3607.480225	4965.536621	2684.032471	-67.997749
766.196777	3562.415283	4794.442871	2583.209473	-79.479210
766.515015	3386.739014	4582.867188	2521.340820	-72.349953
766.833130	3377.572998	4459.129395	2419.753662	-88.559349
767.151184	3261.473877	4369.763672	2459.471924	-72.363922
767.469177	3216.408936	4190.268066	2405.241455	-83.294128
767.787170	3172.107666	4135.273926	2431.974854	-76.843719
768.105103	3153.012451	4132.982422	2375.452881	-79.345245
768.422913	3203.424072	4054.309814	2385.382568	-96.139992
768.740784	3058.299805	3973.345703	2324.277588	-80.216980
769.058594	2963.587158	3957.305908	2346.427979	-62.106022
769.376343	2962.059814	3845.789307	2355.593750	-68.625755
769.693970	2985.738037	3851.135986	2339.553711	-74.669037
770.011658	3005.596924	3829.749268	2267.755371	-89.527328
770.329163	2938.381836	3757.951172	2273.102051	-81.174316
770.646729	2926.160889	3788.503662	2241.022217	-79.450851
770.964233	2985.738037	3764.061523	2305.946045	-87.340546
771.281677	2912.412109	3670.876709	2288.378174	-82.275948
771.599060	2909.356689	3641.087891	2285.323242	-85.281784
771.916382	2963.587646	3641.851563	2298.307861	-98.085678
772.233704	2899.427002	3653.308838	2286.086914	-81.357590
772.550903	2891.789063	3651.781250	2257.062012	-83.517578
772.868103	2923.105469	3683.097656	2241.785889	-89.648232
773.185242	2909.356689	3660.947021	2270.810547	-84.959335
773.502380	2921.577881	3621.992920	2243.313477	-96.837502
773.819397	2926.160889	3598.314453	2299.835693	-93.181862
774.136414	2894.844482	3643.379639	2292.197266	-80.510208
774.453308	2849.779541	3625.047852	2263.936279	-75.566521
774.770203	2862.764404	3588.384766	2231.092529	-87.052666
775.087036	2878.804443	3551.721924	2303.654541	-85.471092
775.403870	2958.240967	3702.192627	2341.081299	-82.956955
775.720642	2906.301514	3491.380859	2236.439209	-114.490845
776.037292	2864.291748	3477.632080	2334.207031	-86.425873
776.354004	2881.095703	3553.249756	2285.323242	-88.636299
776.670593	2821.518555	3536.446045	2278.448730	-75.961525
776.987183	2851.307373	3494.436279	2312.056396	-83.848038
777.303650	2871.930420	3521.169678	2266.991455	-93.176582
777.620117	2884.151123	3529.571533	2299.071777	-90.650887
777.936523	2829.920654	3521.933594	2320.458252	-73.620361
778.252869	2887.969971	3476.104736	2269.282959	-105.194771
778.569153	2858.945313	3542.556396	2235.675293	-91.173187
778.885376	2939.145508	3573.108643	2256.298096	-107.710899
779.201660	2907.065430	3511.239990	2273.865967	-104.804062
779.517822	2957.476807	3560.124023	2246.368652	-117.997421
779.833923	2882.623779	3536.446045	2238.730713	-98.481361
780.149963	2897.135742	3521.169678	2279.976318	-98.898376
780.466003	2948.311279	3548.666748	2321.222412	-104.452927
780.781982	2948.311279	3477.632080	2290.669678	-124.242538
781.097839	2932.271240	3539.500977	2329.624023	-99.245338
781.413696	2970.461914	3516.586914	2323.513672	-118.461571
781.729492	2966.642578	3463.883789	2255.534424	-143.010696
782.045288	2853.598633	3500.546875	2294.488770	-86.422661
782.360962	2838.322510	3439.442139	2280.740234	-92.757286
782.676636	2932.271240	3564.706787	2321.222412	-96.618355
782.992310	2832.211914	3466.175049	2306.709961	-82.891563
783.307861	2871.930420	3387.502686	2309.001221	-109.185318
783.623352	2913.175781	3383.683594	2250.187744	-140.909042
783.938843	2899.427490	3389.030029	2229.564941	-136.817627
784.254272	2878.040283	3325.633789	2281.503906	-133.276367
784.569580	2842.141357	3337.091064	2254.006836	-118.827126
784.884888	2841.377686	3369.171143	2219.635498	-117.800285
785.200134	2858.945313	3347.784424	2292.961182	-115.781273
785.515442	2848.251953	3301.192139	2255.534424	-130.860001
785.830566	2823.809814	3307.302490	2251.715576	-118.325317
786.145752	2888.734131	3290.498779	2259.353516	-156.654053
786.460815	2849.015625	3286.679688	2199.776123	-148.341965
786.775818	2833.739502	3345.493164	2240.258301	-115.970093
787.090759	2845.960693	3408.889404	2230.328857	-109.362312
787.405762	2828.392822	3285.916016	2241.021973	-128.380569
787.720581	2781.800049	3244.669922	2336.498291	-96.204521
788.035400	2850.543213	3311.121338	2268.519287	-126.368118
788.350220	2901.718750	3447.079834	2273.102295	-115.266098
788.664856	3011.707764	3517.350586	2363.231689	-128.247849
788.979553	3078.159180	3533.390625	2359.412842	-157.885910
789.294189	3069.757080	3589.912354	2379.271729	-132.746002
789.608765	3075.103760	3657.891846	2387.673828	-117.955383
789.923279	3022.400635	3577.691406	2380.799561	-115.543266
790.237793	3049.898193	3533.390625	2283.795654	-158.451813
790.552185	2981.155029	3426.457031	2296.780273	-153.687775
790.866638	3030.039063	3456.245361	2360.176514	-157.168625
791.180908	2968.934326	3433.331299	2250.951416	-154.605423
791.495117	2933.798828	3335.563477	2276.157227	-163.688263
791.809387	2920.050049	3342.437744	2235.675293	-162.025253
792.123535	2901.718750	3278.277588	2282.267822	-164.503098
792.437744	2924.633057	3233.976563	2282.267822	-207.654343
792.751770	2902.482422	3195.786133	2261.644775	-218.489441
793.065796	2817.699463	3262.237549	2175.334229	-144.501740
793.379822	2790.202393	3208.006836	2233.384033	-133.272491
793.693726	2833.739502	3210.298584	2235.675293	-158.823471
794.007568	2821.518555	3195.022217	2209.705811	-163.803680
794.321411	2845.196533	3166.760986	2241.785889	-187.648422
794.635193	2795.549072	3155.303955	2230.328857	-157.112595
794.948914	2803.950928	3172.871826	2220.399170	-158.178009
795.262634	2730.625000	3111.002930	2245.604736	-127.510094
795.576233	2781.800537	3107.947510	2222.690674	-171.428802
795.889832	2784.091797	3261.473877	2205.122803	-121.279999
796.203308	2826.865234	3250.780518	2205.886963	-146.486404
796.516846	2878.040283	3233.212646	2231.856201	-181.935349
796.830261	2911.648438	3322.578857	2222.690430	-167.658066
797.143616	2971.989502	3372.990234	2244.077393	-181.523880
797.456970	2964.351318	3313.412842	2273.101807	-198.030853
797.770203	2991.084717	3343.201416	2322.749756	-189.804962
798.083496	2912.412109	3292.026367	2321.986084	-155.533157
798.396606	2884.915039	3226.338623	2221.163086	-194.407181
798.709778	2897.135742	3178.218506	2206.650391	-245.651978
799.022827	2875.749268	3184.328857	2299.071533	-186.881363
799.335938	2845.196533	3182.037354	2325.041260	-154.421692
799.648865	2826.101318	3127.806885	2258.589600	-188.101181
799.961853	2819.990967	3192.730713	2257.062012	-151.024658
800.274658	2812.352783	3066.701904	2257.062256	-218.318237
800.587524	2766.524170	3132.389648	2251.715576	-140.709808
800.900269	2804.714844	3077.395264	2223.454346	-213.165466
801.213013	2793.257813	3098.018311	2178.389648	-201.754547
801.525696	2761.177490	2997.195068	2219.635498	-229.449860
801.838318	2704.655273	3030.802734	2186.027588	-159.016312
802.150940	2721.459229	3001.014404	2144.781494	-206.284042
802.463440	2697.017334	2965.878906	2136.379883	-208.522720
802.775940	2705.419189	2946.019775	2139.435303	-235.237946
803.088379	2710.002197	3023.928467	2108.882813	-191.484253
803.400757	2732.152588	2950.602539	2193.665771	-246.503525
803.713074	2738.262939	2959.768311	2139.435303	-270.344513
804.025330	2717.639893	2972.753174	2207.414307	-199.999619
804.337585	2741.318359	2911.648438	2176.098145	-331.838165
804.649719	2685.560059	2894.844482	2155.475098	-253.284485
804.961914	2672.575439	2959.768311	2169.223877	-175.266037
805.273926	2655.007813	2908.593018	2200.540283	-179.216888
805.585999	2739.790771	2967.406250	2205.886719	-234.564041
805.897949	2750.484131	2933.798828	2140.962891	-332.499939
806.209900	2736.735352	3020.873291	2228.801025	-178.763290
806.521729	2727.569580	2952.893799	2179.153320	-243.389847
806.833618	2710.765869	2994.139893	2155.475342	-195.956757
807.145325	2732.152588	3011.707764	2172.279053	-200.272995
807.457031	2737.499268	3019.345703	2247.132568	-173.983643
807.768738	2718.404053	2986.501953	2182.208740	-199.999817
808.080322	2709.238281	2905.537842	2171.515381	-273.929749
808.391907	2706.182861	2948.311279	2169.223633	-221.766296
808.703430	2646.605713	2937.617920	2152.419922	-169.816177
809.014954	2693.962158	2969.697998	2147.837158	-198.060944
809.326355	2671.811523	2862.764404	2160.822021	-267.599792
809.637817	2605.360107	2866.583252	2145.545654	-176.023621
809.949036	2630.565674	2833.739502	2132.560791	-245.112717
810.260315	2625.982666	2823.809814	2163.113281	-233.976669
810.571594	2669.520264	2773.398438	2121.103516	-527.942261
810.882690	2559.531250	2794.785156	2115.757080	-188.636261
811.193848	2573.280029	2762.705078	2127.978271	-235.080719
811.504883	2532.034180	2768.051758	2048.541504	-204.854523
811.815979	2566.405518	2759.649658	2069.928467	-256.916992
812.126892	2522.104492	2751.248047	2119.575928	-175.666550
812.437866	2531.270264	2711.529541	2068.400635	-256.779907
812.748657	2532.034180	2714.584961	2082.913330	-246.025162
813.059509	2503.773193	2646.605713	2026.391113	-334.225067
813.370300	2477.803467	2596.194336	2045.486328	-365.160889
813.680969	2455.653076	2678.685791	1991.255737	-208.219376
813.991638	2464.818604	2722.222900	2011.114868	-176.261139
814.302246	2473.984375	2651.952393	2037.848267	-245.064316
814.612854	2418.226318	2683.268799	2002.712891	-156.772385
814.923340	2405.241455	2625.982910	1992.019531	-187.197250
815.233887	2428.919678	2623.691406	1954.592773	-243.529648
815.544189	2420.517822	2608.415283	1969.869019	-239.837616
815.854614	2428.919678	2568.697021	2004.240601	-303.825409
816.164917	2463.291016	2593.903076	1975.215820	-373.683105
816.475159	2407.532959	2615.289307	1941.608032	-224.265076
816.785400	2530.506592	2765.760498	2047.013794	-205.519562
817.095459	2409.060547	2678.685791	2055.416016	-131.161499
817.405640	2440.376709	2664.937256	1965.286133	-211.564575
817.715698	2480.858643	2658.826904	1974.452026	-284.548828
818.025757	2446.487305	2626.746826	1986.672852	-255.084702
818.335632	2420.517578	2670.283936	1943.135742	-191.131363
818.645630	2502.245605	2684.032471	1980.562378	-286.975189
818.955383	2466.346436	2689.379150	1940.844238	-235.616638
819.265259	2472.456787	2679.449463	1995.838501	-230.258530
819.575012	2496.135010	2737.499268	1998.893921	-206.012726
819.884705	2538.908203	2796.312500	2089.787354	-174.480713
820.194336	2627.510498	2821.518555	2079.857910	-282.283417
820.503906	2748.956299	3043.787842	2150.892334	-202.849380
820.813477	2813.116455	3218.700439	2222.690430	-145.574295
821.122986	2946.783447	3304.247314	2218.871338	-203.632355
821.432495	3037.677002	3370.698486	2309.764893	-218.578125
821.741821	3094.199219	3496.727539	2350.247070	-184.819824
822.051208	3293.553711	3784.684570	2445.723389	-172.628189
822.360474	3641.851807	4157.424316	2589.320068	-204.148148
822.669800	4617.238770	5578.113281	3014.762695	-166.772675
822.978943	6601.620605	8398.104492	3972.582031	-146.343567
823.288025	8662.382813	11221.149414	4935.748047	-145.641846
823.597168	9979.193359	12787.727539	5462.013672	-160.837631
823.906189	9666.794922	12374.504883	5394.798340	-157.771576
824.215271	8684.532227	10889.656250	4902.903809	-171.492783
824.524109	7637.348145	9474.313477	4455.310547	-173.222519
824.833069	6797.919922	8355.331055	4044.380127	-176.802368
825.141907	6178.468750	7564.786621	3835.095947	-169.035751
825.450684	5761.427734	6954.501465	3639.560303	-177.848816
825.759399	5380.285645	6413.722656	3460.828369	-185.735291
826.068054	5064.068359	6102.851563	3387.502686	-161.397079
826.376709	4874.643066	5638.454590	3273.694580	-209.599945
826.685303	4639.389160	5441.391113	3152.248779	-185.428528
826.993835	4336.919922	5073.233887	2936.854248	-190.145203
827.302307	4149.786133	4776.111328	2942.964600	-192.682892
827.610779	4316.296875	5045.736816	3029.275146	-176.439713
827.919128	4800.553223	5702.614746	3147.665771	-183.234451
828.227478	5062.540527	6180.760254	3328.689209	-155.054611
828.535706	5226.760254	6319.773438	3347.784424	-171.907883
828.843994	4915.125000	5872.944824	3212.589844	-177.751083
829.152161	4436.979004	5287.864746	3036.913330	-164.542145
829.460205	4152.077637	4850.201172	2782.564209	-196.170639
829.768311	3748.021484	4299.493164	2725.278320	-185.457062
830.076355	3572.344971	4138.329590	2575.571533	-176.113174
830.384338	3473.813232	3843.497803	2501.481689	-263.016541
830.692200	3275.986328	3667.821289	2450.306396	-210.721359
831.000061	3135.445068	3520.406006	2346.427979	-204.960297
831.307922	2997.958984	3390.557861	2299.835449	-177.821075
831.615723	2881.859375	3212.589844	2282.267822	-181.293106
831.923401	2677.158203	2971.225586	2156.239014	-177.142792
832.231079	2622.927734	2920.813721	2148.600830	-159.231018
832.538635	2590.083740	2773.398438	2134.852295	-248.333298
832.846191	2609.178955	2786.383545	2153.183594	-257.327057
833.153748	2598.485596	2763.468994	2052.360596	-331.018158
833.461182	2590.847656	2724.514648	2062.290039	-395.428680
833.768616	2677.158203	2894.844482	2124.158936	-254.034973
834.075989	2768.051758	3107.183838	2211.233398	-164.189240
834.383240	3151.485107	3563.179443	2455.652832	-169.016724
834.690491	3444.024658	3929.808594	2480.094971	-198.427658
834.997742	3605.188721	4149.786621	2629.038086	-179.242447
835.304871	3670.112549	4108.540527	2604.595947	-243.031158
835.611938	3485.270508	4010.772461	2565.641846	-175.000046
835.919006	3278.277344	3850.372070	2456.416748	-143.658127
836.225952	3172.108154	3607.480225	2417.462158	-173.333588
836.533020	3043.787842	3398.196045	2338.789795	-198.922607
836.839844	2939.909180	3289.734619	2251.715576	-196.724854
837.146667	2821.518555	3127.042969	2250.951660	-186.750015
837.453491	2793.257568	3002.541748	2192.902100	-286.861359
837.760254	2721.459229	2887.969971	2150.128418	-343.119476
838.066956	2586.264648	2787.146729	2135.616211	-224.334808
838.373596	2538.144531	2679.449707	2135.616211	-284.864532
838.680176	2470.929443	2589.320068	2116.520752	-299.355377
838.986694	2332.679443	2444.196045	2042.431152	-260.273621
839.293152	2338.789795	2400.658447	1979.034790	-581.481873
839.599548	2267.755615	2360.176758	1988.964355	-301.653107
839.905945	2241.785889	2384.618408	1979.034790	-183.957474
840.212280	2256.298096	2361.704346	1956.884277	-284.056976
840.518616	2238.730713	2395.312012	1975.215698	-168.292770
840.824768	2295.252686	2488.496826	2022.572144	-141.106750
841.130981	2421.281250	2565.641846	2040.903442	-263.491425
841.437073	2385.382324	2579.390381	2030.973999	-182.677124
841.743164	2399.894775	2507.592041	2045.486328	-329.078400
842.049194	2300.599365	2471.693115	2055.416016	-143.303513
842.355164	2283.795410	2392.256592	1985.909180	-274.647797
842.661072	2238.730469	2299.071533	1978.270996	-431.645477
842.966858	2223.454346	2292.961182	1966.049927	-370.329651
843.272766	2160.057861	2257.062256	1950.009888	-216.534500
843.578430	2156.239014	2205.122803	1908.000366	-507.813843
843.884277	2116.520752	2139.435059	1923.276489	-843.334534
844.189819	2094.370361	2140.198975	1953.065063	-308.334229
844.495483	2056.943359	2140.962646	1962.230957	-112.726974
844.801025	2091.314941	2082.913086	1892.724243	2363.652832
845.106445	2006.532104	2021.808228	1850.714478	-1020.007690
845.411987	2004.240601	1991.255737	1879.739258	958.819031
845.717346	1985.145142	1987.436890	1882.030884	-4499.371582
846.022705	1941.608032	1943.899414	1856.061157	-3733.418457
846.328003	1932.442383	2000.421509	1865.226929	-98.876610
846.633240	1953.065308	1947.718628	1864.463257	1657.141602
846.938416	1940.844238	1927.095703	1841.548828	722.225403
847.243591	1937.025024	1958.411987	1851.478394	-399.994293
847.548645	1902.653687	1907.236450	1804.885864	-2133.381348
847.853760	1881.266968	1871.337402	1801.830566	799.998779
848.158691	1899.598511	1919.457520	1877.447876	-111.539474
848.463623	1899.598511	1914.110840	1846.131714	-368.423279
848.768494	1933.969849	1894.251831	1809.468750	313.462524
849.073303	1862.935547	1888.141235	1786.554321	-303.031708
849.378113	1851.478394	1846.131714	1817.106934	642.856140
849.682800	1869.045898	1848.423218	1838.493530	148.149353
849.987488	1853.005859	1843.840210	1762.876343	983.340210
850.292114	1886.613647	1885.085938	1821.689575	4249.764160
850.596680	1898.070801	1886.613647	1780.443848	1026.668213
850.901184	1849.186890	1875.156616	1744.544800	-402.938751
851.205627	1869.046021	1854.533569	1755.238159	784.208374
851.510071	1840.021118	1814.051636	1749.127563	350.001404
851.814392	1833.146851	1814.051636	1745.308594	460.001404
852.118774	1843.076294	1795.720093	1791.901001	108.064606
852.423035	1843.840210	1824.744751	1762.112427	427.995911
852.727234	1836.202148	1841.548828	1783.499146	-985.714600
853.031372	1789.609741	1855.297363	1739.198120	-76.744476
853.335449	1787.318237	1769.750488	1758.293335	165.216965
853.639526	1840.021118	1820.162109	1765.931519	373.078033
853.943604	1817.106812	1823.217285	1754.474243	-1025.003540
854.247498	1807.941040	1795.720093	1722.394165	700.002014
854.551331	1798.775391	1767.459106	1723.921875	239.024261
854.855225	1739.198120	1741.489624	1692.605469	-2033.278320
855.158997	1775.097168	1777.388672	1686.495117	-3866.545898
855.462708	1801.830566	1814.051636	1753.710449	-393.747192
855.766418	1775.860962	1759.057251	1719.338989	336.366028
856.070068	1754.474243	1775.860962	1725.449341	-135.714615
856.373596	1764.403809	1765.931274	1722.394165	-2750.283691
856.677185	1753.710449	1765.167603	1720.102661	-293.334534
856.980591	1756.001953	1762.876343	1739.198120	-244.441086
857.284119	1788.082031	1713.992188	1718.575195	93.814255
857.587463	1777.388672	1772.805786	1707.881836	1516.660889
857.890747	1770.514282	1765.931519	1714.756226	1216.690674
858.194031	1785.026855	1792.664917	1748.363770	-480.005127
858.497192	1801.830566	1713.992310	1768.986694	37.391308
858.800415	1793.428711	1704.062866	1690.314087	115.384827
859.103455	1790.373413	1720.102905	1727.740845	89.130661
859.406555	1763.640015	1759.820923	1741.489624	579.991028
859.709595	1815.579224	1782.735352	1689.550415	383.720917
860.012573	1783.499146	1789.609741	1788.082031	74.999001
860.315430	1794.192383	1756.765625	1762.876343	83.672867
860.618286	1720.102905	1704.826538	1716.283691	25.000799
860.921082	1728.504761	1798.775391	1764.403809	51.086845
861.223816	1727.740845	1745.308594	1764.403809	208.694717
861.526550	1738.434204	1764.403809	1695.660767	-164.705765
861.829102	1764.403809	1733.851440	1658.234009	347.501038
862.131775	1768.986694	1702.535156	1718.575195	75.862053
862.434265	1720.866577	1729.268555	1720.102905	-9.089192
862.736755	1728.504761	1723.921875	1707.118042	466.664886
863.039185	1724.685547	1720.866577	1730.032349	-140.006393
863.341553	1757.529419	1704.062866	1715.519897	78.571594
863.643860	1741.489624	1697.188477	1733.087524	18.965874
863.946167	1735.379028	1731.559937	1733.851440	39.998722
864.248413	1736.142944	1710.937134	1684.203613	206.060944
864.550537	1704.062866	1719.338989	1708.645508	29.998722
864.852661	1742.253296	1726.977051	1716.283691	169.999924
865.154785	1744.544800	1724.685669	1723.158081	107.692116
865.456787	1759.057129	1697.952271	1724.685669	56.249962
865.758728	1716.283691	1689.550415	1701.771362	54.285637
866.060669	1728.504761	1714.755981	1679.620728	355.551819
866.362427	1695.660767	1731.559937	1704.826660	25.532328
866.664246	1692.605591	1689.550415	1655.942749	1200.023926
866.966064	1691.078003	1674.274048	1681.912231	54.545322
867.267700	1723.921875	1701.007446	1705.590454	79.999466
867.569336	1707.881836	1671.218872	1688.022827	54.166405
867.870911	1681.912109	1731.560059	1646.776978	-70.768547
868.172546	1740.725586	1689.550293	1682.676147	113.432549
868.473999	1776.624878	1687.258911	1726.213257	56.410313
868.775452	1753.710571	1701.771484	1712.464722	79.411964
869.076782	1718.575195	1688.022827	1684.967407	110.000603
869.378174	1715.520020	1687.258789	1702.535156	45.945854
869.679443	1693.369507	1692.605591	1710.173340	-2199.696289
869.980591	1717.811401	1666.636108	1707.118042	20.895552
870.281799	1694.133179	1649.832031	1696.424683	-5.172561
870.582947	1686.495117	1718.575195	1702.535156	50.000000
870.884033	1688.022827	1666.636108	1662.053223	121.428650
871.184998	1723.158081	1687.258911	1699.479858	65.957581
871.485962	1676.565552	1700.243774	1677.329468	3.226239
871.786865	1703.298950	1678.857056	1681.148438	90.625191
872.087769	1691.078125	1684.967407	1613.169312	1274.953613
872.388489	1715.519897	1695.660767	1644.485474	357.691498
872.689270	1666.636108	1665.108398	1659.761719	449.980011
872.989990	1723.158081	1699.479858	1649.832153	309.676666
873.290588	1678.093262	1684.203735	1639.902710	-625.001526
873.591187	1713.992310	1733.851440	1681.148438	-165.384232
873.891724	1734.615234	1684.967407	1692.605591	84.615273
874.192261	1749.891479	1688.022827	1716.283691	54.321190
874.492676	1722.394165	1707.881836	1684.203613	263.159363
874.793091	1694.133301	1745.308594	1657.470215	-71.642159
875.093384	1749.891479	1675.801758	1653.651245	129.896881
875.393677	1688.786621	1665.872192	1717.811401	-126.665955
875.693848	1680.384766	1692.605591	1642.193970	-312.505859
875.994019	1681.912109	1719.338989	1669.691284	-32.652534
876.294189	1704.826660	1719.338989	1662.053101	-294.739441
876.594177	1693.369507	1684.203613	1665.108398	308.329010
876.894226	1644.485474	1734.615234	1649.068359	5.084764
877.194153	1677.329468	1716.283691	1684.203613	17.646727
877.494080	1645.249390	1668.163696	1621.571289	-103.333260
877.793945	1720.102905	1730.796265	1639.902710	-750.000000
878.093750	1675.037964	1695.660767	1632.264526	-207.408463
878.393433	1726.213379	1701.007446	1649.832153	303.028748
878.693237	1715.520020	1727.740845	1634.556030	-662.508362
878.992798	1759.057129	1667.399780	1640.666382	129.166672
879.292358	1692.605591	1736.906616	1638.375000	-122.413849
879.591980	1721.630371	1732.323853	1673.510254	-449.994873
879.891418	1745.308594	1726.213257	1681.148438	335.999084
880.190796	1783.499023	1771.278198	1711.700806	587.507141
880.490234	1825.508789	1804.122070	1705.590332	560.714600
880.789551	1785.790527	1882.030762	1716.283691	-72.222221
881.088745	1875.920288	1954.592773	1742.253418	-169.902939
881.388062	1976.743530	2087.496094	1778.152466	-179.310577
881.687195	2083.676758	2262.408936	1834.674438	-139.315887
881.986328	2393.020264	2619.872314	1982.089966	-181.144623
882.285339	2865.055664	3323.342529	2276.921143	-128.333267
882.584351	3416.527588	3997.787842	2542.727539	-150.328537
882.883301	3812.945313	4599.671387	2714.584961	-139.611542
883.182129	4000.079102	4814.302246	2778.745117	-149.999908
883.481018	4077.223877	4845.617676	2842.141357	-160.735611
883.779785	3810.654053	4578.284180	2752.011719	-137.910477
884.078552	3788.503662	4443.089844	2680.213623	-169.311554
884.377258	3589.148682	4174.228027	2633.620850	-163.315933
884.675903	3375.281494	3922.934326	2533.561523	-153.695908
884.974487	3318.759766	3710.594727	2454.888916	-220.468033
885.272949	3107.947510	3543.320313	2355.593750	-172.806793
885.571472	2967.406494	3369.171143	2294.489014	-167.490463
885.869873	2853.598633	3192.730713	2270.810547	-171.846939
886.168274	2697.017334	2971.225586	2199.776123	-181.337067
886.466553	2498.426514	2739.791016	2066.109131	-179.113907
886.764832	2373.161377	2545.782715	2014.933960	-207.522095
887.063049	2206.650635	2304.418457	1937.025024	-275.781555
887.361145	2028.682617	2245.604736	1893.487915	-62.324074
887.659241	2075.275146	2181.444580	1860.644165	-202.158920
887.957336	1914.110840	2053.888184	1814.051392	-71.584885
888.255249	1904.945190	1966.813843	1733.851440	-276.543518
888.553223	1853.005981	1942.371948	1715.519897	-153.846130
888.851135	1818.634399	1857.588867	1689.550415	-331.371460
889.148926	1827.800171	1833.910645	1634.556030	-3162.506836
889.446716	1812.523926	1801.066772	1679.620728	1160.001953
889.744446	1748.363770	1778.152466	1679.620728	-230.768890
890.042114	1718.575195	1743.017090	1638.375000	-328.125946
890.339722	1710.173340	1730.796021	1612.405396	-474.079712
890.637329	1646.013062	1733.087524	1629.973145	-18.420919
890.934814	1661.289429	1692.605469	1603.239624	-185.367645
891.232239	1684.203735	1675.037964	1631.500610	574.999329
891.529724	1649.832153	1689.550415	1599.420532	-126.923027
891.827026	1628.445313	1704.062866	1646.013062	23.232368
892.124329	1651.359741	1664.344604	1591.782593	-458.819977
892.421570	1605.531128	1638.375000	1552.064331	-162.790787
892.718811	1610.877808	1669.691284	1552.064331	-100.000000
893.015869	1634.556030	1623.862671	1558.174805	714.286560
893.312988	1607.058716	1634.556030	1536.788086	-255.554520
893.609985	1662.817017	1640.666382	1563.521484	448.273987
893.907043	1640.666382	1602.475952	1553.591919	228.000748
>>>>>End Processed Spectral Data<<<<<
