Jaz Data File
++++++++++++++++++++++++++++++++++++
Date: Fri Aug 08 13:04:19 2014
User: jaz
Dark Spectrum Present: Yes
Reference Spectrum Present: Yes
Processed Spectrum Present: Yes
Spectrometers: JAZA2863
Integration Time (usec): 335000 (JAZA2863)
Spectra Averaged: 3 (JAZA2863)
Boxcar Smoothing: 0 (JAZA2863)
Correct for Electrical Dark: No (JAZA2863)
Strobe/Lamp Enabled: Yes (JAZA2863)
Correct for Detector Non-linearity: No (JAZA2863)
Correct for Stray Light: No (JAZA2863)
Number of Pixels in Processed Spectrum: 2048
>>>>>Begin Processed Spectral Data<<<<<
W	D	R	S	P
190.088943	0.000000	0.000000	0.000000	0.000000
190.471710	0.000000	0.000000	0.000000	0.000000
190.854446	1147.244507	1193.836914	1159.465454	26.229483
191.237137	1161.756836	1182.379761	1180.088257	88.888557
191.619812	1186.198853	1186.198730	1178.560669	0.000000
192.002457	1138.842407	1200.711182	1171.686401	53.086544
192.385071	1206.057983	1236.610352	1196.128296	-32.500549
192.767654	1235.846558	1221.334106	1217.515015	126.315964
193.150192	1233.555054	1219.042603	1240.429321	-47.368069
193.532730	1205.294067	1211.404541	1195.364502	-162.500748
193.915222	1251.886597	1249.595093	1249.595093	100.000000
194.297684	1212.168335	1204.530273	1231.263672	-250.002396
194.680115	1218.278931	1255.705566	1234.318848	42.856956
195.062500	1252.650391	1206.057739	1209.876953	91.802971
195.444870	1338.197144	1295.423828	1265.635132	169.643173
195.827225	1286.257935	1280.911255	1265.635132	385.712341
196.209518	1285.494263	1259.524658	1230.499878	211.764435
196.591797	1246.539917	1208.349365	1198.419800	126.000061
196.974045	1231.263550	1254.178101	1235.846558	20.000425
197.356247	1199.183594	1264.871338	1248.831421	75.581566
197.738449	1286.257935	1270.981812	1256.469360	195.000885
198.120605	1250.358887	1289.313232	1261.816040	29.411747
198.502731	1225.153198	1261.052246	1207.585449	-48.936531
198.884811	1239.665527	1251.122681	1212.932251	-233.332626
199.266876	1258.760864	1225.916992	1171.686401	265.116302
199.648911	1160.229126	1229.735962	1205.294067	64.835266
200.030930	1224.389282	1239.665527	1206.057861	-119.999519
200.412903	1259.524780	1294.659912	1216.751099	-121.740486
200.794830	1267.162720	1270.218140	1228.208374	-1274.926147
201.176743	1248.831177	1280.147461	1206.057861	-136.584900
201.558624	1241.193237	1260.288452	1264.871338	124.000175
201.940475	1206.821655	1267.926636	1206.821655	0.000000
202.322296	1230.499878	1256.469360	1218.278931	-47.058880
202.704086	1203.002686	1264.107422	1196.892090	-10.000199
203.085831	1222.098022	1274.037109	1208.349243	-26.470968
203.467560	1237.374146	1303.061890	1176.269165	-93.023415
203.849258	1214.459839	1244.248413	1188.490234	-87.179749
204.230927	1227.444702	1256.469360	1216.751343	-36.842327
204.612564	1223.625488	1275.564819	1215.223633	-16.176287
204.994156	1251.122681	1292.368530	1175.505371	-183.333130
205.375732	1239.665527	1283.966675	1217.515015	-49.999863
205.757278	1248.831421	1245.776001	1217.515015	1024.946045
206.138794	1225.916992	1257.233276	1208.349243	-56.097809
206.520279	1217.515015	1314.519043	1231.263672	14.173285
206.901703	1227.444702	1244.248413	1193.836914	-200.002182
207.283142	1222.861694	1322.921021	1245.776001	22.900721
207.664536	1209.113159	1316.810547	1238.901733	27.659513
208.045883	1226.680664	1255.705688	1204.530273	-76.314804
208.427216	1226.680786	1254.177979	1186.198730	-147.222504
208.808487	1242.720825	1261.816040	1183.907349	-308.001129
209.189758	1245.776001	1314.519043	1290.840820	65.555466
209.571014	1228.208374	1278.619995	1238.901733	21.212091
209.952225	1195.364502	1254.177979	1192.309204	-5.194894
210.333389	1229.735962	1306.117188	1211.404541	-23.999905
210.714508	1205.294067	1267.162720	1209.876953	7.407444
211.095627	1190.781616	1288.549438	1188.490234	-2.343697
211.476715	1241.956909	1301.534302	1248.831299	11.538588
211.857758	1214.459717	1267.162720	1225.153198	20.290079
212.238785	1246.539917	1300.770508	1228.208374	-33.802956
212.619781	1237.374023	1340.488647	1270.981812	32.592651
213.000717	1194.600708	1309.172363	1206.821655	10.666641
213.381653	1203.002563	1251.886597	1212.932129	20.312492
213.762527	1186.962646	1292.368530	1235.082642	45.652096
214.143402	1193.836914	1292.368530	1227.444580	34.108509
214.524216	1204.530273	1292.368530	1203.766479	-0.869546
214.905029	1230.499878	1299.242798	1222.097900	-12.222317
215.285797	1190.017822	1302.298096	1238.138062	42.857250
215.666550	1172.450073	1293.132324	1207.585449	29.113955
216.047256	1215.223633	1341.252441	1214.459839	-0.606047
216.427933	1225.916992	1319.865723	1190.781616	-37.398457
216.808563	1215.987427	1326.740112	1182.379761	-30.344786
217.189194	1224.389282	1329.031372	1224.389282	0.000000
217.569778	1242.720825	1335.141968	1203.766479	-42.148739
217.950333	1238.901733	1354.237305	1198.419800	-35.099262
218.330841	1235.846558	1382.498413	1231.263672	-3.125010
218.711334	1222.097900	1356.528687	1237.374146	11.363651
219.091797	1226.680786	1339.724854	1180.088257	-41.216255
219.472214	1231.263672	1382.498169	1218.278809	-8.585914
219.852615	1228.208374	1400.065918	1213.695923	-8.444466
220.232986	1190.781738	1394.719238	1199.183594	4.119819
220.613312	1237.374146	1429.090820	1199.947388	-19.521910
220.993607	1220.570313	1454.296509	1266.398926	19.607821
221.373886	1248.831177	1448.186035	1256.469360	3.831451
221.754120	1233.555054	1458.879272	1237.374146	1.694932
222.134308	1240.429321	1474.155640	1258.760864	7.843166
222.514511	1275.564697	1508.527222	1260.288452	-6.557383
222.894653	1240.429321	1486.376587	1243.484619	1.242257
223.274765	1261.816040	1541.370972	1214.459839	-16.939856
223.654846	1253.414185	1563.521484	1287.785645	11.083732
224.034912	1244.248413	1571.923462	1264.107544	6.060617
224.414948	1211.404541	1609.350220	1233.555054	5.566215
224.794922	1256.469360	1571.923462	1249.595093	-2.179166
225.174866	1246.539917	1607.822632	1248.067505	0.422823
225.554794	1222.098022	1613.169312	1222.097900	-0.000031
225.934708	1222.861694	1678.856934	1251.122681	6.197649
226.314560	1269.454224	1707.881836	1271.745605	0.522636
226.694382	1329.031494	1777.388672	1237.374146	-20.442930
227.074203	1285.494263	1879.739380	1270.981812	-2.442166
227.453964	1257.233276	1959.939575	1244.248413	-1.847836
227.833710	1270.218018	2096.661621	1271.745605	0.184839
228.213425	1309.172363	2292.961182	1340.488647	3.183232
228.593079	1319.865723	2492.315918	1308.408569	-0.977197
228.972717	1312.227661	2836.031006	1379.442993	4.411024
229.352341	1385.553589	3353.895264	1403.884888	0.931307
229.731918	1415.342163	3842.734131	1465.753540	2.076771
230.111465	1435.201172	4168.117676	1539.843384	3.828958
230.490982	1455.824219	4171.937012	1506.999512	1.884137
230.870483	1463.462280	3913.004883	1473.391724	0.405359
231.249939	1428.327026	3578.455322	1454.296509	1.207811
231.629364	1422.216431	3246.961182	1408.467773	-0.753456
232.008759	1358.056274	3111.002930	1425.271606	3.834420
232.388107	1342.780151	3074.339844	1367.985840	1.455664
232.767441	1333.614380	2862.764404	1385.553589	3.396606
233.146744	1365.694336	2760.413818	1341.252441	-1.752460
233.526001	1338.197144	2619.872314	1335.905762	-0.178780
233.905228	1336.669556	2516.757813	1309.172363	-2.330096
234.284424	1358.820190	2549.601563	1372.568726	1.154581
234.663605	1371.805054	2705.419189	1391.664063	1.489112
235.042755	1357.292480	2857.417725	1438.256470	5.397149
235.421860	1373.332520	2857.417725	1406.176392	2.213072
235.800949	1338.961060	2829.156494	1380.206909	2.767815
236.179962	1377.151489	2862.000732	1359.583862	-1.183125
236.558990	1319.101929	2715.348877	1388.608765	4.978119
236.937973	1355.764771	2784.091797	1374.096313	1.283428
237.316925	1400.066040	2805.478516	1430.618286	2.173899
237.695831	1375.624023	2751.248047	1426.035522	3.664628
238.074722	1351.182007	2707.710693	1363.402954	0.900899
238.453583	1371.804810	2690.906982	1407.704102	2.721494
238.832397	1338.197144	2686.323975	1352.709595	1.076490
239.211197	1379.442993	2708.474365	1350.418091	-2.183914
239.589966	1351.945801	2837.558594	1371.804810	1.336755
239.968689	1353.473511	2829.920654	1351.182007	-0.155204
240.347382	1381.734375	2900.954834	1393.955444	0.804430
240.726028	1357.292480	2994.139893	1373.332520	0.979935
241.104675	1395.483032	3225.574463	1429.090698	1.836393
241.483276	1378.679199	3381.392334	1497.069946	5.911518
241.861832	1427.563110	3683.097656	1455.824219	1.252967
242.240372	1467.281250	4097.083496	1473.391724	0.232355
242.618881	1504.708008	4447.672363	1577.270142	2.465614
242.997360	1549.772827	4894.501953	1607.822632	1.735561
243.375793	1533.732910	5327.582520	1657.470337	3.261527
243.754196	1566.576782	5396.325684	1681.148438	2.991623
244.132568	1526.094727	5321.472168	1629.209351	2.716848
244.510910	1536.788086	4715.770020	1570.395874	1.057187
244.889236	1526.094727	4307.131348	1547.481445	0.769020
245.267517	1487.904297	4072.641357	1497.069946	0.354607
245.645752	1476.446899	3979.456299	1500.889038	0.976510
246.023972	1482.557617	4050.490967	1504.708008	0.862577
246.402161	1499.361328	4352.959961	1568.868164	2.435761
246.780319	1545.953979	4863.949707	1595.601563	1.496312
247.158432	1633.792114	5651.438965	1662.053101	0.703421
247.536530	1749.891602	6689.458496	1804.122070	1.097879
247.914581	1842.312622	7712.201172	1892.724243	0.858817
248.292618	1838.493530	8064.318359	1888.141235	0.797448
248.670609	1756.765747	7621.308105	1885.085938	2.188068
249.048569	1761.348633	6836.873535	1805.649536	0.872834
249.426483	1652.887329	6037.163574	1746.072388	2.125437
249.804382	1675.801758	5458.958496	1688.786499	0.343225
250.182251	1571.159668	4980.812988	1605.531128	1.008063
250.560074	1571.923462	4475.933594	1569.631958	-0.078908
250.937897	1490.195679	4160.479492	1600.948242	4.147595
251.315659	1478.738403	4056.600830	1549.009155	2.725931
251.693390	1459.643188	3997.023682	1533.732788	2.919925
252.071091	1448.186035	4030.631592	1526.094727	3.016857
252.448776	1503.180542	4298.729004	1533.732910	1.092894
252.826416	1544.426270	4655.429199	1568.868164	0.785660
253.204010	1529.913696	4742.503418	1604.003540	2.306234
253.581573	1528.386108	4690.564453	1594.837769	2.101452
253.959137	1497.833618	4419.411621	1583.380493	2.928105
254.336639	1484.085083	4000.079102	1535.260376	2.033999
254.714127	1428.326782	3699.137451	1496.306152	2.993617
255.091583	1435.965210	3613.590576	1473.391968	1.718696
255.468994	1439.020142	3557.068604	1497.069824	2.740716
255.846344	1415.342163	3526.516357	1450.477539	1.664257
256.223724	1465.753784	3605.952881	1464.225952	-0.071387
256.601044	1433.673462	3625.047852	1461.934570	1.289652
256.978302	1449.713745	3703.720459	1477.210815	1.219920
257.355560	1448.949829	3872.522705	1467.281250	0.756380
257.732788	1438.256470	4062.711670	1461.934570	0.902210
258.109955	1481.793823	4233.805176	1546.717651	2.359141
258.487122	1515.401367	4555.369629	1552.064453	1.206035
258.864258	1553.591919	4857.839355	1647.540649	2.843271
259.241364	1555.119629	5225.996094	1620.807251	1.789426
259.618408	1629.209351	5858.431641	1731.560059	2.420084
259.995422	1743.780884	6687.931152	1794.192505	1.019621
260.372437	1809.468750	7696.925781	1856.825073	0.804360
260.749390	1944.663208	8673.839844	1988.964355	0.658344
261.126312	1911.055664	9063.383789	2056.943604	2.039726
261.503204	1926.331909	8598.222656	2047.014038	1.808815
261.880066	1815.579224	7575.479004	1934.733765	2.068691
262.256927	1701.771362	6629.881348	1782.735352	1.642901
262.633728	1665.108398	5768.302246	1746.836304	1.991812
263.010468	1649.832153	5494.857422	1726.213257	1.986492
263.387207	1616.224487	5313.834473	1680.384644	1.735179
263.763916	1616.224609	5197.734863	1653.651245	1.044996
264.140564	1597.893066	5030.460449	1604.767212	0.200263
264.517212	1546.717773	4950.260254	1619.279663	2.131952
264.893829	1576.506226	4789.096191	1636.083496	1.854493
265.270386	1595.601563	4738.685059	1606.294922	0.340219
265.646912	1544.426270	4746.322754	1608.586426	2.003817
266.023438	1522.275757	4763.890625	1633.792114	3.440148
266.399902	1585.671997	4869.296387	1607.058716	0.651314
266.776367	1592.546387	5247.382813	1639.902710	1.295717
267.152771	1636.083618	5462.013672	1682.676147	1.217809
267.529144	1695.660767	5833.226074	1757.529663	1.495297
267.905518	1636.083496	5880.582031	1735.379028	2.339394
268.281799	1665.872192	5811.075684	1707.881836	1.013452
268.658051	1641.430176	5724.001465	1717.811401	1.870910
269.034302	1649.068359	5772.121094	1697.188477	1.167099
269.410522	1667.399780	5830.170410	1702.535156	0.844038
269.786713	1655.942505	5779.759277	1702.535156	1.129843
270.162842	1721.630371	5843.155762	1777.388672	1.352856
270.538971	1664.344604	5795.035156	1723.921875	1.442308
270.915070	1676.565552	5974.531250	1743.017090	1.546116
271.291107	1694.133179	6312.899902	1747.600098	1.157602
271.667114	1738.434204	6835.346191	1790.373413	1.019033
272.043121	1768.223022	7635.056641	1862.171753	1.601353
272.419037	1810.232422	8117.021484	1941.608032	2.083082
272.794983	1853.005859	8060.500000	1908.764160	0.898242
273.170868	1853.769897	7832.884277	1881.266968	0.459885
273.546722	1788.082031	7404.385254	1873.628906	1.523188
273.922546	1735.379028	7149.272949	1810.232544	1.382619
274.298340	1726.977051	7029.354980	1828.563965	1.915875
274.674072	1744.544800	6722.302246	1762.112427	0.352923
275.049774	1692.605591	6597.800781	1756.765625	1.308002
275.425507	1691.078003	6372.476563	1771.278198	1.713167
275.801117	1704.826660	6427.471191	1733.851440	0.614587
276.176758	1669.691284	6471.771973	1755.238159	1.781454
276.552338	1688.786621	6717.719238	1781.207642	1.837786
276.927887	1715.520020	6871.245605	1798.775391	1.614814
277.303436	1785.790649	7036.992188	1838.493530	1.003635
277.678955	1734.615234	6988.872559	1843.840210	2.078790
278.054413	1754.474243	7015.605957	1870.573608	2.206738
278.429840	1772.041992	6995.746582	1829.327759	1.096650
278.805206	1688.786621	6892.632324	1770.514282	1.570524
279.180542	1704.826660	6734.523438	1791.901001	1.731205
279.555908	1665.108398	6690.222656	1813.287720	2.948775
279.931183	1691.841797	6637.519043	1759.820923	1.374516
280.306427	1723.158081	6733.759766	1770.514282	0.945120
280.681641	1734.615234	7011.786621	1756.765747	0.419742
281.056885	1718.575195	7204.267090	1814.051636	1.740463
281.432037	1737.670532	7315.783691	1852.242188	2.053950
281.807159	1756.765747	7722.131348	1868.282227	1.869399
282.182251	1826.272583	8013.906738	1877.447876	0.827057
282.557312	1845.367798	8480.596680	1934.733765	1.346841
282.932343	1814.815430	8789.175781	1956.120483	2.026065
283.307343	1875.920288	8753.276367	1972.924316	1.410484
283.682343	1820.925903	8601.278320	1945.427124	1.836206
284.057220	1825.508789	8191.875000	1877.447876	0.815836
284.432129	1768.986694	8023.836426	1867.518433	1.575285
284.806976	1823.217285	8028.419434	1982.853882	2.572625
285.181824	1836.965942	8318.667969	1890.432617	0.824886
285.556641	1860.644043	8733.417969	1995.074829	1.955990
285.931396	1869.046021	8806.743164	1969.869141	1.453265
286.306122	1829.327759	8941.173828	1995.074829	2.330577
286.680817	1836.965820	9378.074219	2009.587280	2.289073
287.055511	1897.307007	9497.992188	2063.053955	2.180684
287.430084	1862.935547	9537.710938	2016.461548	2.000397
287.804688	1876.684082	9468.203125	2012.642456	1.790925
288.179291	1825.508789	8948.047852	1975.215820	2.101877
288.553802	1808.704956	8508.856445	1909.527954	1.504787
288.928284	1799.539185	8214.026367	1872.865112	1.143130
289.302765	1790.373413	8117.021484	1885.085938	1.497041
289.677216	1775.097168	8188.056152	1856.825073	1.274418
290.051605	1810.232422	8342.346680	1893.487915	1.274557
290.425964	1820.162109	8709.739258	1946.190918	1.829268
290.800293	1840.021118	9104.629883	1936.261353	1.324782
291.174622	1940.844238	9469.731445	2058.471191	1.562342
291.548828	1905.708984	9646.936523	2005.004395	1.282683
291.923096	1878.975586	9556.804688	2038.611938	2.079186
292.297272	1820.925903	9254.335938	1989.728149	2.270859
292.671448	1853.005981	9022.137695	1942.371704	1.246535
293.045593	1856.061157	8630.301758	1937.789063	1.206451
293.419678	1773.569702	8445.460938	1914.874634	2.117914
293.793762	1760.584839	8420.254883	1876.684082	1.743318
294.167786	1810.232544	8633.358398	1940.080444	1.903056
294.541779	1823.217285	8955.686523	1930.150879	1.499251
294.915741	1856.061157	9337.590820	2005.768188	2.001022
295.289673	1891.196655	9895.938477	2011.114868	1.498090
295.663574	1918.693726	9892.118164	2063.817871	1.820098
296.037445	1930.150879	10008.217773	2085.204590	1.919441
296.411255	1915.638550	9951.695313	2030.973999	1.435224
296.785065	1945.427124	10260.276367	2072.219727	1.524894
297.158844	1987.436646	10670.442383	2160.058105	1.988038
297.532593	2003.476685	11082.136719	2141.726563	1.522800
297.906281	2048.541748	11388.424805	2196.720947	1.586521
298.279907	2004.240601	11435.018555	2168.459961	1.741313
298.653564	1984.381470	10963.745117	2166.168701	2.024500
299.027161	1974.452026	10435.952148	2106.591064	1.561650
299.400696	1873.628906	9824.139648	2059.998779	2.344125
299.774231	1849.186890	9507.157227	2037.084473	2.453621
300.147736	1823.217285	9111.503906	2010.351074	2.567596
300.521179	1797.247681	8813.617188	1927.859375	1.861528
300.894623	1834.674438	8688.352539	1943.899414	1.593669
301.268036	1811.760132	8667.729492	1911.819336	1.459447
301.641388	1793.428711	8545.519531	1933.206055	2.070134
302.014740	1778.152344	8448.515625	1902.653687	1.866485
302.387970	1802.594360	8436.293945	1883.558472	1.220497
302.761292	1819.398315	8568.434570	1946.954712	1.889994
303.134460	1833.910645	8413.379883	1880.503052	0.708148
303.507690	1775.860962	8160.558594	1867.518433	1.435580
303.880829	1772.805786	7777.125488	1859.116333	1.437474
304.253967	1785.790527	7787.818848	1843.840210	0.967168
304.627045	1739.198120	7722.895020	1834.674438	1.595608
305.000122	1807.941040	7717.548340	1825.508789	0.297274
305.373169	1748.363892	7651.096191	1840.785034	1.565735
305.746094	1754.474243	7622.071777	1861.407837	1.822443
306.119110	1793.428711	7528.123047	1865.990723	1.265316
306.491974	1785.790649	7650.332520	1899.598267	1.940605
306.864868	1770.514282	7609.087402	1882.030762	1.909995
307.237762	1738.434204	7629.710449	1869.809937	2.230005
307.610565	1768.986816	7680.121094	1836.202148	1.137097
307.983368	1764.403809	7569.369141	1871.337402	1.842106
308.356140	1777.388672	7634.292969	1853.769897	1.304123
308.728821	1790.373535	7952.802246	1829.327759	0.632125
309.101532	1785.026855	8321.722656	1931.678589	2.243515
309.474182	1848.422974	8464.555664	1942.371704	1.419995
309.846771	1857.588867	8693.699219	1971.396851	1.664806
310.219391	1875.156372	8611.207031	1995.074829	1.780249
310.591919	1855.297363	8576.072266	1905.708862	0.750085
310.964417	1852.242188	8660.090820	1957.648071	1.548299
311.336914	1849.950684	8537.880859	1943.899414	1.404750
311.709381	1823.217285	8455.389648	1987.436890	2.476106
312.081757	1846.895508	8658.563477	1951.537598	1.536218
312.454163	1856.824829	8611.971680	1988.964355	1.956131
312.826508	1797.247681	8455.389648	1918.693726	1.824023
313.198853	1870.573608	8347.692383	1947.718384	1.191035
313.571106	1806.413452	7938.289551	1932.442383	2.055308
313.943329	1782.735352	7761.085449	1914.874634	2.210297
314.315552	1785.790527	7689.287109	1853.769897	1.151510
314.687744	1853.769897	7915.375000	1950.773804	1.600301
315.059845	1840.785034	8172.779785	1911.055664	1.109771
315.431976	1826.272583	8628.010742	1925.567993	1.459853
315.804047	1823.217407	8599.750977	1900.362183	1.138411
316.176117	1847.659302	8273.602539	1950.010132	1.592775
316.548096	1840.785034	7870.310547	1907.236450	1.102100
316.920074	1749.127563	7443.339844	1858.352539	1.918175
317.291992	1757.529663	7254.678223	1825.508789	1.236625
317.663940	1772.041992	7194.337402	1842.312500	1.295955
318.035767	1787.318237	7187.463379	1809.468750	0.410184
318.407654	1777.388672	7040.047363	1787.318237	0.188680
318.779388	1741.489624	7109.554688	1776.624878	0.654524
319.151184	1795.720093	7129.414063	1773.569702	-0.415292
319.522919	1780.443848	7357.792969	1828.563965	0.862778
319.894623	1779.680054	7472.365234	1859.880249	1.408829
320.266296	1773.569702	7428.827637	1864.463257	1.607240
320.637878	1715.519897	7417.370605	1869.045898	2.692564
321.009521	1767.458984	7143.162598	1840.785034	1.364027
321.381042	1737.670410	7031.645996	1830.855469	1.760209
321.752594	1739.198120	6886.521484	1813.287720	1.439381
322.124054	1702.535156	6826.180176	1766.695313	1.252237
322.495514	1713.992310	6918.601563	1804.885742	1.746403
322.866943	1693.369507	7001.857422	1806.413452	2.129494
323.238342	1758.293457	7146.217285	1786.554321	0.524522
323.609711	1802.594360	7384.526855	1837.729614	0.629446
323.981049	1847.659180	7827.537109	1915.638550	1.136802
324.352325	1843.840210	8302.627930	1906.472656	0.969725
324.723572	1860.644043	8581.417969	1969.105103	1.613818
325.094818	1918.693726	8830.420898	2003.476685	1.226654
325.465973	1902.653687	8540.936523	1969.869019	1.012541
325.837158	1840.785034	8340.054688	1976.743286	2.091901
326.208252	1846.895508	8161.322754	1922.512817	1.197532
326.579315	1863.699341	8130.769531	1990.492065	2.023158
326.950378	1903.417480	8270.547852	1940.844238	0.587812
327.321381	1885.849976	8299.573242	1947.718628	0.964629
327.692383	1890.432617	8210.969727	1924.040405	0.531724
328.063324	1822.453491	7859.617188	1912.583374	1.492918
328.434235	1804.122070	7753.447754	1927.859375	2.079854
328.805084	1854.533569	7499.098145	1904.945190	0.893100
329.175934	1859.116333	7514.374512	1938.552734	1.404647
329.546722	1860.644043	7515.138672	1919.457520	1.040119
329.917511	1862.171753	7479.238770	1876.684082	0.258361
330.288239	1904.945190	7624.363281	1956.120483	0.894764
330.658936	1849.186890	7424.244629	1950.773804	1.822168
331.029602	1849.186890	7507.500000	1912.583374	1.120413
331.400238	1897.307007	7479.239746	1909.527954	0.218938
331.770844	1909.527954	7672.482910	1952.301392	0.742214
332.141357	1923.276733	7667.900879	1930.150879	0.119662
332.511932	1879.739258	7729.005371	1940.844238	1.044661
332.882385	1965.286255	7795.457031	1988.964478	0.406133
333.252869	1988.200562	7958.912598	1972.160522	-0.268645
333.623260	1927.095703	7929.888184	2010.350952	1.386942
333.993683	1946.190918	8065.082520	2011.878540	1.073522
334.364044	1938.552734	7981.826660	1982.089966	0.720425
334.734375	1994.311035	7747.337402	2018.752930	0.424853
335.104645	1989.728149	7793.165527	2092.078857	1.763622
335.474915	2046.250122	7814.552246	2068.400635	0.384004
335.845123	2013.406250	7815.315918	2088.259766	1.290153
336.215271	2045.486328	8002.449707	2075.275146	0.500067
336.585480	2066.109375	8277.422852	2095.134033	0.467287
336.955566	2024.099609	8180.417969	2087.495850	1.029775
337.325653	2053.124512	8260.618164	2109.646484	0.910544
337.695679	2090.551270	8410.325195	2125.686523	0.555957
338.065674	2068.400635	8666.965820	2212.760986	2.187754
338.435669	2131.033203	9025.957031	2209.705811	1.141022
338.805603	2131.033203	9130.598633	2202.831299	1.025751
339.175507	2127.214111	8965.616211	2240.258057	1.653075
339.545349	2118.812256	8679.950195	2157.002686	0.582070
339.915222	2061.526367	8437.057617	2249.424072	2.947169
340.285004	2085.204346	8304.918945	2095.134033	0.159649
340.654785	2037.848267	8262.145508	2111.174072	1.178058
341.024506	2107.355225	8238.467773	2122.631348	0.249157
341.394196	2057.707275	8188.056152	2156.239014	1.607278
341.763855	2146.309570	8384.355469	2137.907471	-0.134691
342.133484	2141.726563	8523.369141	2171.515381	0.466789
342.503082	2150.128418	8586.765625	2157.766602	0.118667
342.872620	2157.002930	8652.453125	2215.052490	0.893696
343.242157	2163.113281	8637.940430	2245.604736	1.274033
343.611603	2145.545654	8630.302734	2172.279053	0.412250
343.981079	2185.263916	8679.186523	2253.242920	1.046810
344.350494	2223.454346	9121.433594	2271.574463	0.697597
344.719910	2261.644775	9266.557617	2309.001221	0.676046
345.089203	2259.353760	9581.247070	2344.900391	1.168368
345.458557	2276.921143	9848.581055	2310.529053	0.443864
345.827820	2292.961182	9931.073242	2372.397461	1.039999
346.197052	2318.930664	9932.600586	2375.452881	0.742378
346.566284	2301.363037	9971.554688	2382.327148	1.055568
346.935455	2326.568848	9767.618164	2402.186279	1.016220
347.304565	2309.764893	9711.094727	2351.774658	0.567598
347.673676	2266.991699	9591.940430	2345.664063	1.074033
348.042755	2292.961182	9153.512695	2319.694580	0.389668
348.411774	2246.368652	8980.127930	2278.448975	0.476410
348.780792	2214.288574	8744.110352	2252.479248	0.584866
349.149719	2199.012451	8673.075195	2253.243164	0.837661
349.518646	2196.720947	8761.678711	2260.117432	0.965680
349.887543	2198.248779	8972.490234	2294.488770	1.420676
350.256409	2266.227783	9006.861328	2288.378174	0.328610
350.625214	2265.463867	9261.973633	2352.538330	1.244541
350.993958	2275.393555	9388.767578	2345.664063	0.987865
351.362762	2265.464111	9330.717773	2299.835693	0.486488
351.731445	2286.850830	9242.116211	2298.307861	0.164725
352.100159	2270.810547	9287.944336	2325.041260	0.772833
352.468781	2289.906006	9202.397461	2327.332764	0.541437
352.837402	2284.559326	9349.812500	2296.016357	0.162160
353.205963	2276.157227	9447.581055	2307.473633	0.436683
353.574524	2326.568848	9642.352539	2354.066162	0.375863
353.943024	2325.041260	9901.284180	2354.829834	0.393184
354.311493	2395.311768	10294.647461	2465.582764	0.889581
354.679901	2415.171143	10465.741211	2480.094971	0.806450
355.048309	2471.693115	10533.719727	2519.813232	0.596874
355.416687	2490.788330	10746.824219	2529.742676	0.471829
355.785004	2475.511963	10884.309570	2558.767334	0.990098
356.153290	2473.984375	11014.921875	2515.230225	0.482919
356.521545	2554.948486	11324.265625	2583.209717	0.322274
356.889740	2607.651367	11620.624023	2664.937256	0.635594
357.257965	2580.154297	11776.440430	2679.449463	1.079731
357.626099	2713.821289	12128.558594	2701.600342	-0.129807
357.994232	2726.042236	12861.816406	2827.628906	1.002259
358.362274	2822.282471	13658.471680	2904.773682	0.761257
358.730347	2800.131836	13796.721680	2907.829102	0.979370
359.098328	2764.996338	13431.620117	2830.684326	0.615827
359.466339	2697.781250	12541.780273	2708.474365	0.108626
359.834259	2635.912354	12253.058594	2680.977295	0.468590
360.202179	2674.103271	12255.350586	2693.962158	0.207268
360.570007	2717.640137	12705.234375	2761.177734	0.435917
360.937866	2785.619385	13402.594727	2829.156982	0.410075
361.305634	2872.694092	13881.504883	2910.120850	0.339971
361.673431	2964.351318	14774.399414	3015.526611	0.433320
362.041168	3180.509766	15742.913086	3236.268311	0.443853
362.408783	3182.037109	17157.492188	3336.327148	1.104007
362.776489	3282.096680	17666.189453	3373.753906	0.637212
363.144104	3253.071533	16964.248047	3366.879639	0.830039
363.511688	3064.410400	15515.296875	3110.239258	0.368077
363.879211	2916.231201	14005.242188	2968.170166	0.468382
364.246735	2800.131836	12972.569336	2849.015625	0.480551
364.614197	2635.148682	12281.320313	2767.287842	1.369861
364.981659	2590.083740	11780.260742	2658.826904	0.748007
365.349060	2549.601563	11616.804688	2619.872314	0.774999
365.716431	2508.355713	11281.492188	2551.893311	0.496260
366.083771	2467.874023	11031.725586	2568.697021	1.177309
366.451050	2457.180664	10937.012695	2517.521729	0.711583
366.818359	2413.643311	10802.582031	2488.496826	0.892288
367.185516	2376.980469	10648.291992	2518.285400	1.708374
367.552765	2418.226318	10836.954102	2520.576904	1.215749
367.919891	2423.572998	10962.981445	2511.411133	1.028621
368.286987	2476.275635	10788.833008	2496.898682	0.248095
368.654083	2450.306396	10726.201172	2441.140625	-0.110753
369.021149	2351.774658	10287.008789	2384.618408	0.413898
369.388184	2260.117432	10173.201172	2402.949951	1.805017
369.755127	2326.568848	10034.187500	2427.391846	1.308095
370.122070	2341.844971	10024.257813	2407.532959	0.855044
370.488953	2381.563232	10135.774414	2409.824219	0.364460
370.855865	2314.347900	10112.860352	2449.542236	1.733591
371.222687	2316.639404	10109.040039	2419.753906	1.323270
371.589478	2378.508057	10531.428711	2383.090820	0.056210
371.956238	2384.618408	10766.682617	2487.733154	1.230183
372.322968	2398.367188	10612.393555	2422.809326	0.297566
372.689667	2369.342529	10565.036133	2378.508057	0.111833
373.056335	2317.403076	10529.136719	2391.492920	0.902244
373.422943	2325.041260	10311.451172	2376.980469	0.650345
373.789520	2316.639404	10120.499023	2382.327148	0.841734
374.156097	2390.729004	10139.593750	2302.126953	-1.143420
374.522552	2375.452881	10291.592773	2397.603271	0.279813
374.889069	2355.593750	10364.917969	2380.035645	0.305168
375.255463	2335.734619	10506.987305	2390.729248	0.673026
375.621887	2354.066162	10573.438477	2423.572998	0.845647
375.988251	2368.578369	10797.999023	2483.913818	1.368249
376.354584	2353.302490	11105.815430	2480.094971	1.448641
376.720886	2467.110107	11413.629883	2559.531250	1.033040
377.087158	2451.833984	11622.915039	2536.616943	0.924460
377.453400	2532.797852	12174.386719	2631.329346	1.021942
377.819550	2588.555908	12825.917969	2677.158203	0.865480
378.185699	2581.681885	13068.045898	2685.560303	0.990605
378.551788	2552.656982	12964.166992	2644.314453	0.880348
378.917908	2520.576904	12512.754883	2638.203857	1.177190
379.283936	2460.999756	11923.856445	2569.460938	1.146178
379.649933	2428.156006	11429.670898	2534.325439	1.179462
380.015930	2321.986084	11182.195313	2473.984619	1.715519
380.381866	2297.544189	10788.069336	2432.738525	1.592296
380.747772	2305.182373	10815.566406	2402.949951	1.148803
381.113586	2270.810791	10751.406250	2385.382568	1.350987
381.479462	2283.031738	10750.642578	2410.588135	1.506404
381.845215	2260.117432	10915.625977	2386.146240	1.456053
382.210999	2226.509521	10595.588867	2380.035889	1.834448
382.576691	2283.031494	10658.985352	2386.910156	1.240201
382.942383	2287.614502	10640.653320	2366.287109	0.941844
383.308044	2314.347900	10866.742188	2396.839600	0.964545
383.673645	2271.574463	10933.957031	2405.241455	1.543074
384.039215	2302.126953	11234.898438	2427.391846	1.402307
384.404785	2316.639404	11399.117188	2503.773193	2.060383
384.770294	2334.207031	11540.422852	2474.748291	1.526591
385.135742	2347.955811	11456.403320	2454.889160	1.174002
385.501190	2333.443115	11497.649414	2479.331299	1.591935
385.866547	2371.633789	11506.051758	2457.944336	0.944894
386.231934	2329.624023	11441.891602	2429.683350	1.098073
386.597229	2341.081299	11404.464844	2430.447266	0.986011
386.962524	2316.639404	11609.166992	2435.793945	1.282262
387.327759	2341.081299	11730.612305	2514.466553	1.846581
387.692963	2353.302246	11913.164063	2448.014893	0.990732
388.058136	2373.161377	12101.824219	2477.803467	1.075606
388.423279	2376.980469	12048.356445	2483.914063	1.105671
388.788422	2309.765137	11910.872070	2506.064453	2.044549
389.153442	2263.936523	11699.295898	2483.150391	2.323323
389.518524	2267.755371	11654.995117	2412.115479	1.537833
389.883484	2279.212646	11587.780273	2442.668213	1.755969
390.248444	2211.997314	11517.508789	2434.266357	2.388574
390.613373	2270.810547	11528.965820	2425.100586	1.666531
390.978271	2266.991699	11559.518555	2444.195557	1.906950
391.343109	2257.062256	11898.651367	2503.773193	2.558820
391.707916	2297.544189	12515.809570	2515.993896	2.137836
392.072693	2392.256592	13204.003906	2569.460938	1.638998
392.437408	2419.753662	13472.864258	2611.470459	1.734505
392.802155	2428.156006	13708.882813	2609.942627	1.611480
393.166779	2364.759521	13223.098633	2622.927490	2.377601
393.531433	2299.071533	12748.772461	2541.963623	2.324393
393.895996	2360.940430	12413.459961	2472.456787	1.109337
394.260590	2325.041260	12561.637695	2511.411133	1.820623
394.625092	2302.126953	12782.379883	2498.426514	1.873042
394.989563	2357.885010	13140.606445	2575.571289	2.018844
395.354004	2345.664063	13363.640625	2567.933350	2.017333
395.718445	2265.463867	12977.916992	2496.898682	2.160428
396.082825	2305.946045	12457.760742	2484.677734	1.760589
396.447113	2283.031494	11965.101563	2384.618408	1.049227
396.811462	2211.997314	11598.472656	2393.784424	1.936692
397.175690	2189.846680	11615.276367	2387.673584	2.098864
397.539948	2215.816406	11432.726563	2387.673828	1.864588
397.904114	2146.309326	11245.592773	2321.986084	1.930666
398.268280	2106.591064	11295.239258	2292.197266	2.019951
398.632385	2158.530273	11172.265625	2305.946045	1.635457
398.996460	2150.892334	11121.090820	2288.378174	1.532696
399.360535	2148.600830	11278.436523	2283.795654	1.480802
399.724518	2151.656006	11304.406250	2263.936523	1.226741
400.088501	2160.822021	11297.531250	2331.151611	1.864233
400.452423	2081.385498	11344.124023	2314.347900	2.515049
400.816345	2147.073242	11116.507813	2334.970703	2.094864
401.180206	2134.852295	10999.645508	2272.338379	1.550923
401.544006	2131.797119	11360.164063	2274.629639	1.547755
401.907806	2077.566406	11014.921875	2252.479248	1.957098
402.271576	2075.275146	10959.926758	2327.332764	2.837001
402.635284	2038.612183	11295.241211	2295.252686	2.772505
402.998962	2124.158936	11238.717773	2317.403076	2.120170
403.362610	2118.048584	11492.303711	2367.051025	2.656237
403.726166	2124.158936	11523.620117	2387.673828	2.803511
404.089783	2118.048584	11805.465820	2360.940430	2.507292
404.453278	2184.500000	12221.743164	2376.980225	1.917660
404.816803	2257.062256	12395.127930	2388.437500	1.295861
405.180237	2231.856201	12760.230469	2510.647461	2.647999
405.543671	2179.153320	12796.893555	2451.070068	2.560966
405.907043	2230.328613	12816.750977	2457.944336	2.150072
406.270416	2220.399170	12757.174805	2416.698486	1.862992
406.633698	2155.475098	12506.644531	2414.407227	2.501477
406.996948	2169.987549	12421.097656	2454.125244	2.771775
407.360229	2118.812256	11980.378906	2358.648926	2.432034
407.723358	2121.867432	12095.713867	2363.231934	2.419974
408.086578	2147.836914	11953.644531	2374.688965	2.313446
408.449677	2137.143555	11849.002930	2387.673828	2.579633
408.812805	2122.631348	11700.823242	2311.292725	1.969697
409.175842	2140.198975	11674.854492	2391.492920	2.635585
409.538849	2132.560791	11739.778320	2389.201416	2.671331
409.901825	2143.254150	11910.106445	2389.965332	2.526005
410.264740	2121.867432	12120.918945	2335.734619	2.138875
410.627686	2150.128418	12522.684570	2367.814697	2.098675
410.990509	2190.610596	12611.286133	2456.416748	2.550757
411.353363	2171.515381	12691.487305	2425.100586	2.410512
411.716125	2138.671143	12738.843750	2412.879639	2.586830
412.078918	2134.852295	12321.039063	2435.030029	2.946910
412.441620	2139.435303	12396.656250	2353.302490	2.085040
412.804291	2085.968262	11986.489258	2350.247070	2.669342
413.166931	2124.158936	11765.747070	2357.121338	2.416224
413.529541	2142.490234	11939.897461	2322.749756	1.839870
413.892120	2104.299805	11926.911133	2336.498291	2.363918
414.254669	2090.551514	12200.356445	2380.035645	2.863400
414.617126	2144.018066	11997.182617	2341.844971	2.007750
414.979584	2125.686523	12408.113281	2359.412842	2.273066
415.342010	2156.239014	12327.913086	2392.256592	2.320342
415.704376	2121.867432	12405.057617	2358.648926	2.302607
416.066772	2160.822021	12599.065430	2428.919678	2.568417
416.429047	2143.254150	12851.122070	2451.070068	2.874671
416.791321	2208.177979	13219.280273	2459.471924	2.282187
417.153564	2199.776123	13289.550781	2532.797852	3.002962
417.515747	2242.549805	13649.304688	2528.978760	2.511047
417.877930	2228.801025	13785.264648	2511.411133	2.445472
418.240021	2307.473633	14306.946289	2639.731445	2.768937
418.602142	2241.785889	14540.672852	2599.249268	2.906469
418.964142	2307.473633	15161.652344	2698.544922	3.042367
419.326202	2333.443115	15617.647461	2700.836182	2.765639
419.688171	2435.030029	16041.562500	2803.950928	2.711351
420.050079	2419.753906	16643.445313	2872.693604	3.184403
420.411987	2433.502686	17156.726563	2881.095947	3.040049
420.773865	2474.748291	17666.953125	2946.019531	3.102060
421.135681	2597.721924	18464.373047	3061.355469	2.922063
421.497467	2666.464844	19403.859375	3123.987549	2.733536
421.859222	2679.449463	20098.929688	3137.736328	2.630887
422.220917	2728.333740	20297.517578	3274.458252	3.108423
422.582611	2703.891602	19991.230469	3211.062256	2.933769
422.944244	2671.047852	19309.146484	3181.273438	3.066610
423.305847	2706.947021	19264.845703	3127.806641	2.541745
423.667389	2619.108643	19040.285156	3080.450439	2.809432
424.028931	2661.118164	19198.394531	3132.389893	2.849754
424.390411	2678.685791	19610.853516	3127.042969	2.647961
424.751892	2626.746582	20042.406250	3146.138428	2.982327
425.113281	2678.685791	20489.998047	3178.218506	2.804581
425.474640	2700.836182	20230.302734	3188.147705	2.779956
425.835999	2733.680420	19788.056641	3174.399170	2.584197
426.197266	2619.108643	19367.197266	3151.485107	3.178730
426.558594	2617.580811	18822.599609	3077.395508	2.837483
426.919769	2557.239990	18604.912109	3088.852295	3.312707
427.280975	2573.280029	17968.658203	2970.461670	2.579876
427.642090	2496.898682	17757.845703	2927.688232	2.822823
428.003235	2511.411133	17127.701172	2855.889893	2.356814
428.364288	2435.030029	16512.833984	2814.644287	2.696545
428.725342	2380.035645	16165.299805	2879.568115	3.623670
429.086365	2371.633789	15764.299805	2752.011719	2.840196
429.447296	2308.237549	15621.465820	2716.876465	3.069420
429.808258	2337.262451	15382.393555	2711.529785	2.869020
430.169128	2320.458252	15231.922852	2712.293701	3.034787
430.529999	2298.307861	15108.184570	2706.947021	3.190032
430.890778	2265.463867	15206.715820	2657.299072	3.027800
431.251526	2281.504150	14905.774414	2645.078125	2.879960
431.612274	2283.031494	14917.996094	2686.323975	3.191877
431.972992	2228.037354	14747.666992	2650.424805	3.373801
432.333649	2241.785889	14749.958008	2670.283936	3.425745
432.694275	2283.795410	14741.555664	2657.299072	2.998161
433.054871	2340.317627	14976.045898	2656.535400	2.502568
433.415375	2335.734619	15224.284180	2710.001953	2.903875
433.775940	2293.725098	15403.016602	2760.413818	3.559984
434.136383	2276.157471	15545.848633	2766.524170	3.695389
434.496826	2321.986084	15791.796875	2807.005859	3.600791
434.857208	2392.256836	15786.449219	2781.800537	2.908303
435.217560	2383.854736	15904.839844	2760.413330	2.784994
435.577881	2354.066162	15651.254883	2788.674561	3.268423
435.938171	2351.774658	15759.715820	2768.051758	3.104706
436.298431	2352.538330	15422.112305	2763.468750	3.144176
436.658630	2306.709717	15328.163086	2701.600098	3.032614
437.018799	2267.755615	15331.981445	2698.544922	3.297473
437.378937	2348.719482	15340.383789	2774.162109	3.274735
437.739075	2312.820313	15270.877930	2739.027100	3.289126
438.099091	2305.946045	15707.012695	2795.548828	3.653461
438.459137	2339.553711	15865.122070	2782.564209	3.275356
438.819092	2382.327148	16022.467773	2781.036865	2.923062
439.179077	2396.075439	16278.343750	2867.346924	3.394773
439.538940	2399.894775	16576.232422	2916.231201	3.642241
439.898773	2407.532959	16827.525391	2897.899658	3.400603
440.258636	2412.115479	17183.460938	2849.779541	2.962926
440.618408	2505.300781	17463.779297	2929.215820	2.833945
440.978180	2519.049072	17830.408203	2943.728516	2.773623
441.337891	2570.224609	18607.205078	3132.389648	3.505430
441.697601	2581.681641	18988.345703	3121.696289	3.291435
442.057220	2638.203857	18950.919922	3149.193604	3.132463
442.416840	2566.405518	18893.632813	3124.751709	3.419724
442.776367	2509.883545	18151.208984	3047.606689	3.437836
443.135864	2543.491211	17933.523438	3024.692383	3.126707
443.495422	2525.159912	17628.000000	3007.124756	3.191220
443.854828	2483.913818	17091.039063	2947.547607	3.174025
444.214264	2411.351807	17030.697266	2962.823486	3.772205
444.573608	2431.210938	16944.388672	2948.311279	3.562971
444.932953	2441.140625	16909.251953	2879.568359	3.030304
445.292267	2462.527344	16813.775391	2932.271240	3.273192
445.651550	2431.974854	17490.513672	3035.385498	4.007100
446.010742	2462.527100	17718.892578	3022.401123	3.669773
446.369934	2498.426514	18132.876953	3032.330322	3.414919
446.729065	2568.697021	18885.232422	3123.223877	3.398558
447.088165	2623.691406	19481.003906	3194.258545	3.384686
447.447235	2633.620850	19616.199219	3250.780518	3.634075
447.806244	2640.495117	19555.095703	3265.292725	3.693836
448.165253	2624.455322	19587.173828	3185.092773	3.305115
448.524200	2558.003662	19319.837891	3235.504150	4.041924
448.883148	2632.093506	18851.625000	3140.027588	3.131620
449.241974	2565.641602	18631.646484	3195.785889	3.922221
449.600891	2567.933350	18131.349609	3092.671143	3.371611
449.959656	2524.396240	17775.414063	3033.093994	3.335500
450.318420	2465.582520	17626.470703	2986.501709	3.435941
450.677155	2481.622314	17252.966797	2981.155029	3.381769
451.035797	2412.115723	16886.337891	3014.762695	4.163588
451.394470	2400.658447	16473.115234	2951.366455	3.913375
451.753082	2417.462646	16255.429688	2860.472900	3.201411
452.111664	2415.170898	16182.867188	2876.512939	3.350902
452.470154	2399.894775	16258.485352	2934.562500	3.858024
452.828705	2431.974854	16661.779297	2923.869141	3.456789
453.187134	2398.367188	16764.892578	2953.657959	3.865171
453.545563	2464.818848	16577.757813	2915.467041	3.193156
453.903931	2386.909912	16483.044922	2904.774170	3.673803
454.262238	2377.744141	15866.649414	2861.236572	3.584371
454.620544	2331.151611	15619.174805	2842.905273	3.851240
454.978821	2368.578369	15150.958008	2776.453857	3.190920
455.337067	2315.111572	14944.730469	2719.167725	3.199274
455.695251	2296.016602	14721.696289	2764.996338	3.774278
456.053406	2357.885010	14626.984375	2769.579346	3.355538
456.411469	2303.654541	14604.833008	2732.152344	3.483388
456.769592	2265.463867	14760.651367	2781.036377	4.126169
457.127594	2272.338379	14573.516602	2760.413818	3.967713
457.485626	2273.102295	14739.264648	2711.529785	3.516940
457.843567	2279.212646	14849.253906	2789.438477	4.059062
458.201447	2334.207031	15007.362305	2794.021484	3.628256
458.559357	2355.593750	15328.163086	2862.764404	3.909562
458.917175	2348.719482	15933.101563	2909.356689	4.127072
459.274994	2378.508057	16343.268555	2970.461670	4.238910
459.632751	2490.788330	17547.033203	3072.048828	3.860594
459.990509	2585.500977	18729.414063	3206.479492	3.846518
460.348175	2671.047852	19982.064453	3382.156006	4.107836
460.705841	2778.745117	20806.982422	3457.009521	3.762233
461.063446	2756.594482	20868.085938	3451.662842	3.837720
461.421021	2693.962158	20088.234375	3327.925537	3.644668
461.778534	2634.384766	18971.541016	3257.654541	3.815044
462.135986	2603.832275	18164.195313	3187.384033	3.750245
462.493500	2457.944336	17261.369141	3085.033203	4.236107
462.850861	2519.049316	16704.552734	3040.732422	3.677579
463.208282	2437.321533	16215.710938	3026.983643	4.279615
463.565582	2405.241211	15986.567383	2912.412109	3.734325
463.922943	2348.719482	15604.661133	2853.598633	3.808701
464.280182	2356.357666	15361.770508	2900.191162	4.181593
464.637421	2354.829834	15234.214844	2873.457764	4.026807
464.994598	2357.121338	15129.571289	2817.699219	3.606026
465.351685	2364.759521	15486.272461	2886.442383	3.975783
465.708832	2376.216553	15563.416992	2813.116455	3.313060
466.065887	2356.357422	15454.192383	2906.301514	4.198740
466.422943	2322.749756	15437.387695	2875.749023	4.216657
466.779907	2349.483154	15364.061523	2893.317139	4.178652
467.136871	2375.452881	15978.166992	2907.065430	3.908136
467.493774	2394.548096	16536.511719	3015.526611	4.391035
467.850708	2473.220703	16789.333984	3009.416016	3.745397
468.207489	2440.376709	16630.460938	3052.189453	4.311551
468.564331	2421.281494	16445.619141	3021.636963	4.280811
468.921051	2387.673828	15918.588867	2885.678711	3.680497
469.277740	2367.050781	15629.104492	2868.875000	3.783910
469.634460	2363.995361	15317.468750	2843.668945	3.703050
469.991089	2338.026123	15350.312500	2915.467529	4.437663
470.347687	2360.940430	15374.754883	2830.684326	3.609579
470.704254	2315.875488	15112.004883	2887.206299	4.464872
471.060791	2354.829834	15235.742188	2808.533936	3.522298
471.417236	2335.734619	15199.078125	2902.482422	4.405913
471.773743	2325.804932	15256.364258	2874.221436	4.241243
472.130127	2367.050781	15205.953125	2868.875000	3.908623
472.486481	2295.252686	15320.524414	2826.101318	4.075528
472.842804	2330.387939	15454.191406	2929.979736	4.568735
473.199066	2355.593506	15474.050781	2881.095703	4.005823
473.555359	2399.131104	16265.359375	2997.195313	4.313099
473.911560	2403.713867	16758.781250	3049.134521	4.496117
474.267731	2433.502686	16596.853516	3000.250732	4.001511
474.623871	2395.312012	16461.658203	2993.375977	4.251737
474.979980	2416.698730	16099.612305	3014.762695	4.370882
475.336029	2417.462646	15987.332031	2994.139893	4.249689
475.692047	2421.281494	16031.632813	2982.682617	4.124810
476.048004	2445.723389	16277.581055	2962.059814	3.732951
476.403931	2448.778564	16502.904297	3051.425781	4.288045
476.759857	2493.079834	16786.279297	2993.375977	3.500239
477.115723	2482.386475	17223.177734	3043.023682	3.803305
477.471558	2532.797852	17640.982422	3094.199219	3.715876
477.827301	2516.757813	18009.140625	3138.500244	4.013214
478.183075	2579.390625	18012.958984	3214.881592	4.117589
478.538757	2573.280029	18219.953125	3185.856445	3.915059
478.894470	2622.927734	18585.054688	3238.559570	3.856828
479.250061	2582.445557	18943.281250	3293.553711	4.346405
479.605682	2612.234131	18915.021484	3347.784424	4.511807
479.961212	2603.068359	19154.093750	3361.533203	4.582585
480.316681	2678.685791	19348.101563	3375.281494	4.178885
480.672180	2681.741211	19416.080078	3354.658936	4.021179
481.027588	2709.238281	20179.126953	3450.898682	4.245364
481.382996	2761.177490	20962.035156	3576.927734	4.481933
481.738342	2830.684326	21652.519531	3611.299561	4.147391
482.093689	2956.713135	23186.251953	3748.021484	3.911648
482.448914	3043.023682	24308.291016	3922.934326	4.137783
482.804199	3161.414795	26239.968750	4188.740723	4.451431
483.159363	3293.553955	29076.000000	4421.703125	4.375648
483.514496	3657.891846	33062.332031	4885.335938	4.174350
483.869659	4146.730957	39234.687500	5610.957031	4.173016
484.224701	4663.831543	47814.582031	6557.318848	4.388075
484.579773	5255.020996	55063.917969	7391.400879	4.289153
484.934723	5510.897949	57060.515625	7819.135254	4.477700
485.289734	5286.337402	53690.582031	7357.792969	4.279491
485.644623	4800.553223	48181.207031	6807.849121	4.627169
485.999512	4462.948730	42051.625000	6190.689941	4.596441
486.354309	4227.694824	37868.996094	5659.076660	4.254835
486.709167	3989.385742	34931.375000	5326.819336	4.322391
487.063904	3886.271484	34628.906250	5253.493652	4.447316
487.418610	3921.406494	36261.937500	5344.386719	4.399990
487.773315	4076.460205	38785.566406	5584.986816	4.346199
488.127930	4307.131348	41336.699219	5891.275879	4.278053
488.482574	4393.441895	42420.546875	6103.614746	4.497247
488.837097	4417.119629	42526.714844	5993.626465	4.136772
489.191650	4237.624512	40777.589844	5762.191406	4.172327
489.546112	4047.435547	37627.628906	5513.189453	4.364935
489.900604	3831.276611	34368.449219	5199.262695	4.479741
490.254974	3611.299561	31852.453125	4926.582031	4.657325
490.609375	3504.365967	30253.796875	4685.217773	4.414493
490.963654	3470.757813	30039.166016	4669.177734	4.510695
491.317932	3473.813232	30312.611328	4704.312988	4.584780
491.672211	3586.857422	32749.931641	4909.777832	4.536286
492.026367	3970.290771	36487.261719	5306.196289	4.108333
492.380615	4026.812744	38984.921875	5604.083496	4.511888
492.734711	4024.521240	39188.863281	5568.947754	4.392024
493.088837	3895.436768	36710.292969	5357.371582	4.455101
493.442841	3655.600342	32730.076172	4973.938477	4.534348
493.796875	3447.080078	29424.298828	4636.333984	4.578065
494.150818	3296.609131	26705.896484	4304.839844	4.306969
494.504730	3072.812500	24645.130859	4078.751953	4.663103
494.858673	2992.612305	23346.654297	3945.084717	4.679524
495.212494	2838.322266	22549.998047	3709.830811	4.421281
495.566315	2832.211914	21821.322266	3651.017578	4.311975
495.920074	2847.488281	21686.890625	3654.836670	4.285425
496.273834	2739.026611	21355.398438	3585.329834	4.546016
496.627472	2799.367920	21893.119141	3651.017578	4.460358
496.981201	2866.583252	22416.330078	3713.650146	4.332879
497.334778	2829.156494	22829.552734	3802.251953	4.865381
497.688354	2878.040283	23335.958984	3825.166260	4.629631
498.041870	2858.181641	23269.507813	3837.387451	4.797365
498.395355	2842.141357	22892.947266	3819.055908	4.872196
498.748840	2878.804443	22160.453125	3735.036865	4.440660
499.102203	2784.855469	22056.576172	3701.428955	4.756054
499.455627	2717.640381	21697.585938	3655.600342	4.941847
499.808960	2799.367920	21241.587891	3644.906982	4.584801
500.162262	2748.956299	20930.716797	3528.043701	4.284995
500.515472	2675.630615	20268.494141	3494.436279	4.654192
500.868713	2647.369385	19869.783203	3437.914063	4.590208
501.221893	2631.329590	19677.302734	3419.582764	4.624278
501.574982	2607.651367	19254.916016	3382.919922	4.657032
501.928101	2573.280029	19146.455078	3401.251221	4.995851
502.281158	2564.877930	19041.812500	3347.784424	4.751530
502.634186	2592.375244	18702.679688	3338.618408	4.632086
502.987122	2566.405518	18848.570313	3337.854736	4.738001
503.340088	2548.074219	18691.224609	3356.186279	5.005913
503.692993	2583.209473	18768.367188	3366.115967	4.837188
504.045868	2569.460938	18928.005859	3316.468018	4.566464
504.398682	2580.918213	19072.365234	3337.091064	4.585243
504.751465	2597.721924	18991.400391	3358.477783	4.640544
505.104156	2566.405518	19096.042969	3288.207031	4.366711
505.456848	2557.239990	19122.779297	3355.422607	4.818332
505.809540	2562.586670	19014.314453	3347.784424	4.772737
506.162109	2588.555908	18657.615234	3352.367188	4.753304
506.514740	2608.415283	18607.966797	3341.673828	4.582994
506.867218	2545.018799	18511.728516	3242.378662	4.367587
507.219788	2509.119873	18429.236328	3233.976563	4.553087
507.572174	2505.300781	18498.742188	3282.860596	4.861742
507.924622	2505.300781	18554.500000	3256.890869	4.683038
508.276978	2522.868408	18569.013672	3314.940430	4.936213
508.629333	2540.435791	18741.634766	3321.815186	4.822973
508.981628	2561.058838	18970.015625	3366.879883	4.910861
509.333832	2563.350342	19105.974609	3383.683594	4.958906
509.686096	2562.586670	19401.568359	3414.999756	5.062141
510.038239	2593.138916	19337.408203	3429.512451	4.994984
510.390381	2604.595947	19548.984375	3426.457031	4.850344
510.742462	2629.038086	19658.972656	3465.411377	4.911195
511.094543	2611.470459	19725.423828	3463.119873	4.976346
511.446533	2648.133545	19693.343750	3481.451416	4.888868
511.798553	2645.078125	19777.361328	3462.356201	4.770398
512.150452	2682.504883	20112.677734	3468.466797	4.509203
512.502319	2616.817139	19955.330078	3474.577148	4.947137
512.854187	2655.007568	20306.685547	3501.310547	4.794462
513.205994	2672.575439	20263.910156	3534.918213	4.902089
513.557800	2642.022949	20001.160156	3561.651611	5.297664
513.909485	2619.872314	19904.156250	3504.365967	5.117329
514.261230	2590.847412	19726.953125	3486.034424	5.223982
514.612854	2606.123779	19510.792969	3379.100586	4.572564
514.964478	2600.777100	19182.353516	3424.929443	4.970290
515.316040	2622.163818	19189.228516	3391.321533	4.642692
515.667603	2579.390381	19015.843750	3382.156006	4.884056
516.019043	2564.877930	18937.935547	3354.658936	4.823662
516.370483	2590.847412	19259.498047	3436.386719	5.072632
516.721985	2572.516113	19193.048828	3380.628174	4.862131
517.073242	2610.706543	19610.853516	3461.592529	5.005168
517.424622	2624.455322	19975.955078	3491.380859	4.996257
517.775879	2623.691406	20465.556641	3471.521729	4.751915
518.127197	2745.137451	21279.779297	3598.314453	4.603148
518.478394	2754.302979	21951.931641	3757.187256	5.224001
518.829529	2797.840576	23238.955078	3768.644531	4.749271
519.180664	2891.789063	23795.773438	3969.526611	5.155656
519.531677	2875.749268	24141.015625	3940.501953	5.007004
519.882813	2913.175781	23794.248047	3991.677002	5.164970
520.233765	2901.718750	23026.615234	3824.402588	4.584788
520.584778	2825.337646	22326.203125	3829.749268	5.150600
520.935608	2758.885986	21259.156250	3712.885986	5.156682
521.286560	2710.002197	21100.283203	3651.781250	5.121069
521.637390	2677.922119	20433.476563	3579.983154	5.080444
521.988220	2638.203857	20344.875000	3583.038330	5.336037
522.338989	2658.826904	20144.757813	3521.933594	4.936007
522.689758	2644.314209	19911.794922	3562.415283	5.316937
523.040344	2588.556152	20021.781250	3495.199951	5.200666
523.390991	2639.731445	20264.673828	3561.651611	5.230770
523.741577	2663.409424	20322.724609	3578.455322	5.181662
524.092163	2696.253662	20580.128906	3636.505127	5.257538
524.442688	2737.499268	21224.785156	3653.308838	4.953727
524.793091	2738.262939	21534.126953	3735.036865	5.303156
525.143616	2777.217529	22249.820313	3815.237061	5.330667
525.494019	2814.644287	23389.427734	3892.381836	5.238148
525.844360	2910.120361	24963.640625	4073.405029	5.274826
526.194641	3064.410889	26383.568359	4244.498535	5.060593
526.544922	3055.244873	27312.361328	4335.392090	5.277409
526.895142	3148.429688	28197.617188	4446.145020	5.180668
527.245300	3179.746094	28495.501953	4522.525879	5.304127
527.595459	3250.780273	29082.111328	4503.431152	4.849347
527.945618	3306.538818	30750.273438	4732.574219	5.196215
528.295715	3485.270508	32880.542969	5067.123535	5.381318
528.645691	3789.267334	37740.675781	5545.269531	5.172104
528.995728	4165.826660	43457.800781	6215.131348	5.215581
529.345642	4391.914551	48118.578125	6746.744629	5.385341
529.695557	4579.048340	48982.449219	6870.481934	5.160491
530.045410	4352.195801	45691.187500	6553.500000	5.325007
530.395264	4074.168945	40540.808594	6015.776855	5.324340
530.745056	3826.694092	36374.218750	5599.500000	5.446823
531.094727	3559.360107	32914.152344	5248.910645	5.755620
531.444519	3370.698975	30419.544922	4921.235840	5.732359
531.794067	3286.679688	28473.353516	4576.756348	5.122060
532.143799	3177.454346	27685.099609	4446.908691	5.179830
532.493347	3081.214111	27096.203125	4396.497559	5.476927
532.842896	3111.766846	27554.490234	4508.777344	5.715446
533.192383	3186.620361	29117.248047	4624.876953	5.546556
533.541870	3340.910156	31725.662109	4767.709473	5.026640
533.891296	3516.586670	34005.636719	5101.494629	5.198286
534.240601	3576.164063	35080.320313	5185.514160	5.108374
534.589966	3469.230469	33783.371094	5122.117676	5.452528
534.939270	3423.401611	31283.414063	4885.336426	5.247431
535.288574	3279.041260	29003.437500	4679.107422	5.442562
535.637695	3120.932373	27225.287109	4474.406250	5.615059
535.986877	3085.033203	25906.947266	4288.035645	5.271260
536.336060	3023.164795	25674.750000	4296.437988	5.621121
536.685120	2981.918945	26092.554688	4255.956055	5.512774
537.034180	3080.450439	26821.994141	4307.895020	5.170029
537.383179	3046.079102	27622.468750	4448.437012	5.706118
537.732117	3077.395264	27640.798828	4411.009766	5.429274
538.080994	3041.496094	26621.111328	4365.944824	5.616922
538.429932	2969.697998	25254.654297	4222.348145	5.621057
538.778748	2909.356689	23868.335938	4052.018311	5.451896
539.127625	2874.985107	23360.400391	3984.802979	5.417600
539.476379	2822.282471	22756.226563	3932.864014	5.571309
539.825073	2828.392578	22889.892578	3950.431396	5.592996
540.173706	2758.885986	23203.054688	3939.738281	5.775986
540.522400	2840.614014	24299.890625	4069.585938	5.726996
540.870972	2897.899658	25816.818359	4267.413086	5.975471
541.219482	3050.662109	28534.458984	4504.958496	5.706749
541.567993	3305.774658	31990.703125	4884.572266	5.503927
541.916504	3508.184814	35286.550781	5269.533691	5.542604
542.264954	3683.097656	37057.828125	5488.747559	5.410231
542.613281	3598.314453	36266.519531	5452.848145	5.676877
542.961670	3523.460938	34179.785156	5258.839844	5.660753
543.309998	3450.135010	31467.494141	4944.913574	5.335187
543.658264	3230.921143	29929.939453	4846.381836	6.050637
544.006470	3129.334229	28879.701172	4660.775879	5.947261
544.354675	3106.419922	27520.880859	4452.255371	5.512452
544.702759	2978.863525	25900.835938	4268.177246	5.624794
545.050842	2842.141602	24328.914063	4075.696533	5.740996
545.398987	2787.147217	23338.250000	3916.823486	5.496913
545.746948	2745.901123	22615.685547	3922.170654	5.919890
546.094971	2700.072510	22233.015625	3828.985352	5.779532
546.442871	2719.167969	22038.244141	3796.141602	5.574664
546.790771	2684.796143	22357.517578	3854.191406	5.944248
547.138611	2684.032471	22572.912109	3886.271484	6.044780
547.486450	2665.701172	22907.460938	3898.492188	6.090335
547.834229	2747.428955	22792.890625	3877.869385	5.639384
548.181946	2663.409424	22143.650391	3819.055908	5.932404
548.529663	2677.921875	21057.509766	3665.530029	5.373396
548.877197	2577.863037	20228.013672	3625.811768	5.937336
549.224854	2507.592041	19362.613281	3452.426514	5.605656
549.572388	2475.511963	18513.255859	3420.346436	5.891318
549.919983	2407.532959	18023.652344	3357.714111	6.084618
550.267456	2357.121338	17594.390625	3265.292969	5.960199
550.614868	2305.946045	17120.064453	3224.810791	6.202629
550.962280	2348.719482	16900.849609	3178.982178	5.705438
551.309692	2276.157227	16825.232422	3186.620361	6.257876
551.656921	2292.961182	16706.841797	3169.052734	6.078110
552.004150	2309.001221	16631.226563	3142.319092	5.818355
552.351440	2300.599365	16696.912109	3171.343994	6.048387
552.698608	2317.403320	17058.958984	3246.961670	6.305700
553.045776	2344.136475	17265.951172	3213.353516	5.825143
553.392883	2348.719482	17661.607422	3287.443359	6.130286
553.739990	2352.538330	17641.748047	3220.991943	5.680173
554.086975	2312.056641	17419.478516	3191.203125	5.819302
554.434021	2345.664307	17272.062500	3188.147705	5.644251
554.780884	2298.307861	16819.123047	3231.685303	6.427858
555.127808	2290.669678	16535.748047	3175.927002	6.214478
555.474670	2210.469482	16101.903320	3107.947998	6.460661
555.821411	2207.414307	16032.397461	3036.913330	6.000000
556.168213	2202.067627	15683.334961	3013.235107	6.016997
556.514954	2256.298096	15629.104492	3036.149414	5.831620
556.861633	2252.479248	15496.964844	2981.918945	5.507497
557.208313	2228.037354	15309.067383	2999.486328	5.897463
557.554932	2262.408691	15242.616211	2997.195068	5.660822
557.901489	2219.635498	15244.907227	2965.115234	5.723333
558.247986	2194.429443	15128.807617	2997.958984	6.212356
558.594482	2190.610352	15048.608398	2950.602539	5.910657
558.940857	2296.016357	15016.528320	3036.913330	5.824428
559.287354	2226.509521	14922.579102	2945.255859	5.661172
559.633667	2147.073242	14904.247070	2913.939697	6.011257
559.979980	2181.444580	14779.746094	2959.004639	6.171944
560.326233	2179.153320	14953.895508	2925.396729	5.841554
560.672546	2163.877197	14725.515625	2923.869141	6.050102
561.018677	2169.987549	14861.473633	2920.813721	5.915983
561.364868	2179.917236	15030.277344	2971.225586	6.157869
561.710938	2174.570557	15128.808594	2929.979736	5.831367
562.057007	2195.957275	15090.617188	2995.667236	6.201869
562.403015	2156.239014	15152.485352	2920.050049	5.877167
562.748962	2183.736084	15057.773438	2974.280518	6.140610
563.094910	2146.309570	15090.617188	2946.783447	6.183984
563.440796	2193.665771	14802.660156	2951.366455	6.009208
563.786682	2167.696289	14816.409180	2959.004639	6.256039
564.132507	2127.214111	14709.476563	2934.562500	6.416560
564.478271	2187.555420	14746.902344	2925.397217	5.874842
564.823975	2189.082764	14855.363281	2975.044678	6.205152
565.169678	2155.475342	14914.176758	2938.381592	6.136253
565.515320	2215.052490	15202.898438	2997.195068	6.022112
565.860962	2181.444580	15445.790039	3017.053955	6.299665
566.206482	2226.509521	15703.958008	3098.018311	6.466423
566.551941	2242.549561	16357.780273	3110.239014	6.147186
566.897461	2295.252686	16636.572266	3139.263672	5.885170
567.242859	2293.724854	16803.845703	3144.610596	5.864084
567.588318	2327.332764	16777.876953	3159.123047	5.756117
567.933594	2304.418213	16250.083008	3149.957275	6.063096
568.278992	2242.549561	16020.175781	3061.355469	5.943012
568.624207	2268.519287	15673.406250	3058.300049	5.891737
568.969482	2214.288818	15360.242188	3030.802734	6.211143
569.314575	2205.123047	15195.258789	3007.124756	6.173929
569.659729	2209.705811	15249.489258	3057.536133	6.501874
570.004822	2212.760986	15332.746094	3029.275391	6.223440
570.349854	2227.273682	15417.528320	2994.903564	5.819674
570.694946	2187.555176	15339.620117	2997.958984	6.161799
571.039917	2169.223877	15516.059570	3023.928467	6.403800
571.384827	2197.484619	15600.843750	3014.762695	6.097561
571.729736	2235.675537	15784.921875	3056.008545	6.054455
572.074585	2273.102295	16235.570313	3120.168701	6.066739
572.419373	2292.961182	16748.087891	3200.369141	6.277412
572.764099	2348.719482	16984.107422	3246.197510	6.132246
573.108826	2304.418213	16880.990234	3251.544189	6.497591
573.453430	2263.172607	16761.835938	3176.690674	6.300705
573.798096	2304.418213	16359.308594	3169.052490	6.151839
574.142700	2247.132568	16379.166992	3143.083008	6.339855
574.487244	2303.654541	15844.500000	3054.480713	5.544899
574.831787	2263.172607	15817.002930	3072.048584	5.967877
575.176270	2267.755127	15904.077148	3149.957275	6.469502
575.520630	2227.273438	15877.343750	3082.742188	6.267138
575.865051	2239.494385	15668.058594	3020.873291	5.818782
576.209351	2215.816406	15857.484375	3127.806885	6.685330
576.553650	2231.856445	15671.877930	3056.008789	6.132076
576.897949	2215.052490	15234.979492	3081.978271	6.658453
577.242126	2175.334229	14897.374023	3000.250244	6.484149
577.586304	2147.073242	14597.959961	2986.501709	6.741917
577.930420	2148.600830	14202.304688	2916.231201	6.368419
578.274536	2154.711182	14030.448242	2878.040283	6.090814
578.618530	2140.198975	13731.034180	2913.175781	6.668862
578.962585	2141.726563	13541.608398	2858.945313	6.291458
579.306458	2036.320679	13294.133789	2800.895508	6.791504
579.650452	2089.787354	13092.487305	2788.674561	6.351961
579.994324	2008.059570	12900.770508	2663.409424	6.016407
580.338074	2014.933960	12715.928711	2728.333740	6.666667
580.681885	2014.170044	12425.679688	2693.198242	6.521899
581.025635	1992.783325	12452.414063	2700.836426	6.769389
581.369324	2018.752930	12556.291992	2658.826904	6.074226
581.713013	2011.878784	12398.182617	2726.041992	6.876009
582.056641	2012.642456	12259.168945	2658.826904	6.306376
582.400146	1979.798462	12220.979492	2630.565674	6.354416
582.743713	1996.602417	12216.395508	2621.400146	6.113605
583.087219	2021.044312	12138.487305	2648.897217	6.205648
583.430725	1954.592773	12114.043945	2671.811523	7.059621
583.774048	2027.154907	12143.070313	2621.400146	5.874360
584.117371	2021.044434	12112.518555	2658.826904	6.320013
584.460754	1999.657715	11840.600586	2636.676270	6.473145
584.804016	1965.286133	11926.148438	2591.611328	6.287861
585.147278	1941.608032	11836.018555	2596.958252	6.623439
585.490417	2001.185425	11879.554688	2618.344727	6.247583
585.833557	2018.752930	11716.863281	2634.384766	6.347957
586.176636	1939.316772	11754.290039	2588.555908	6.614782
586.519775	1948.482422	11685.546875	2625.218994	6.950109
586.862793	1997.366211	11505.288086	2577.862793	6.105399
587.205688	1985.145386	11717.627930	2587.028564	6.184272
587.548645	1933.206055	11670.270508	2574.807373	6.589269
587.891541	1956.120483	11724.502930	2642.786865	7.029479
588.234436	1953.065308	11858.932617	2635.912354	6.893360
588.577209	2078.330078	11801.647461	2663.409424	6.017281
588.919983	2005.004395	11932.257813	2690.906738	6.909286
589.262695	2010.351074	12010.930664	2642.022705	6.316350
589.605408	2018.752930	11981.906250	2687.087891	6.708066
589.947998	2016.461548	12145.362305	2682.504883	6.575673
590.290588	1992.019531	12299.652344	2664.173340	6.520933
590.633179	2036.320679	12198.828125	2617.581055	5.719655
590.975647	2012.642578	12243.893555	2646.605713	6.196341
591.318115	2021.808228	12082.729492	2703.127930	6.771942
591.660583	1992.019531	11954.409180	2667.228516	6.777581
592.002930	1959.939453	11894.832031	2611.470459	6.558008
592.345215	1959.939453	11757.346680	2680.977295	7.359476
592.687622	1979.034790	11732.140625	2593.902588	6.304328
593.029846	1948.482300	11652.703125	2628.274170	7.005116
593.372009	1963.758667	11528.203125	2588.556152	6.532502
593.714172	1972.924316	11634.372070	2583.209229	6.316703
594.056335	2008.059570	11703.114258	2580.154297	5.900892
594.398376	1991.255859	11797.828125	2601.541016	6.223226
594.740417	2002.712891	11916.981445	2612.234375	6.147922
595.082458	1977.507202	12101.824219	2583.209473	5.982648
595.424316	2043.194946	12192.718750	2677.158203	6.246237
595.766235	1980.562500	12250.768555	2616.053467	6.187714
596.108093	1990.491821	12390.545898	2732.916260	7.138659
596.449951	2001.949219	12450.122070	2700.836182	6.689083
596.791687	2056.943604	12914.519531	2760.413330	6.479068
597.133484	2022.572144	13430.856445	2833.739502	7.110336
597.475159	2076.802734	13920.458008	2853.598633	6.558751
597.816772	2162.349365	14007.534180	2904.010010	6.261284
598.158386	2114.993164	13907.473633	2845.960693	6.198590
598.499939	2036.320679	13359.821289	2815.407959	6.880269
598.841492	2050.069092	12738.843750	2722.986816	6.295556
599.182922	2003.476685	12270.627930	2722.987061	7.007887
599.524353	1973.688110	11761.929688	2575.571289	6.149043
599.865723	1972.924316	11554.936523	2632.857178	6.887206
600.207153	1959.175781	11104.286133	2541.963623	6.372672
600.548401	1961.467163	11094.358398	2515.230225	6.063393
600.889709	1952.301392	10961.454102	2496.135010	6.036457
601.230896	1934.733765	10941.594727	2451.833984	5.741181
601.572083	1911.055542	10823.967773	2509.119873	6.710089
601.913208	1923.276489	10945.414063	2515.994141	6.569592
602.254272	1897.307007	10966.800781	2514.466553	6.804785
602.595398	1959.175781	11034.780273	2564.114258	6.665545
602.936340	1945.427124	11239.481445	2564.114014	6.656803
603.277283	1953.828979	11527.438477	2570.988525	6.446467
603.618225	1941.608032	11956.700195	2667.228760	7.245273
603.959106	2024.863403	12437.901367	2686.323975	6.352234
604.299927	2047.777710	12716.692383	2743.609619	6.522049
604.640686	2027.154907	12873.273438	2746.665039	6.633803
604.981445	2062.290283	13406.414063	2855.126221	6.988957
605.322144	2105.063721	13763.113281	2871.929932	6.577997
605.662781	2078.330322	13691.316406	2847.488281	6.623257
606.003418	2085.968506	13591.256836	2868.875000	6.804753
606.343933	2105.063721	13081.793945	2769.579346	6.053857
606.684509	2050.833008	12568.512695	2711.529541	6.281771
607.024963	2000.421509	12065.925781	2636.676270	6.321142
607.365356	1969.105103	11587.780273	2580.154297	6.352738
607.705811	1971.396851	11327.320313	2605.360107	6.776062
608.046143	1921.749023	11168.448242	2522.104492	6.492646
608.386414	1940.844238	10946.942383	2518.285400	6.411669
608.726746	1933.969849	10811.747070	2548.074219	6.917321
609.066956	1904.945190	11004.992188	2481.622559	6.337081
609.407104	1924.804199	11208.165039	2594.666748	7.215733
609.747253	1962.994751	11826.852539	2687.087891	7.340872
610.087341	1990.492065	11983.433594	2644.314453	6.542842
610.427429	2047.014038	12098.004883	2701.600342	6.512654
610.767456	1951.537598	11884.137695	2622.163818	6.751770
611.107361	1957.648071	11627.497070	2628.274170	6.935228
611.447327	1950.773804	11178.377930	2591.611328	6.944788
611.787170	1929.387085	10769.737305	2507.592041	6.540521
612.126953	1900.362305	10465.741211	2467.874023	6.625647
612.466797	1879.739258	10196.116211	2373.925049	5.942321
612.806519	1846.895508	10013.565430	2365.523193	6.350541
613.146240	1856.825073	9913.504883	2351.774658	6.143344
613.485840	1853.769653	9702.694336	2359.412842	6.442197
613.825500	1904.945190	9586.593750	2353.302490	5.836733
614.165039	1821.689575	9360.506836	2309.764893	6.474163
614.504639	1862.935547	9305.511719	2324.277588	6.198688
614.844055	1847.659180	9187.884766	2289.906006	6.024976
615.183472	1786.554321	9074.077148	2294.489014	6.969923
615.522888	1794.192383	9122.196289	2270.810791	6.504069
615.862244	1767.459106	8977.836914	2255.534424	6.769067
616.201538	1765.931519	8966.378906	2312.056396	7.584597
616.540771	1709.409546	8987.002930	2272.338135	7.735093
616.880066	1794.192383	8996.167969	2232.620117	6.087604
617.219177	1779.680054	8919.787109	2239.494385	6.439880
617.558350	1785.790649	8864.028320	2252.479248	6.593288
617.897400	1728.504761	8910.622070	2259.353516	7.391257
618.236450	1814.815430	9065.674805	2276.921143	6.373116
618.575439	1794.192505	8983.183594	2241.785889	6.226094
618.914429	1782.735352	8981.655273	2209.705811	5.931035
619.253357	1804.122070	8975.545898	2224.218262	5.857919
619.592224	1713.228516	8890.762695	2237.966797	7.310843
619.931030	1763.640015	8915.967773	2204.359131	6.161898
620.269836	1836.202148	8870.902344	2233.384033	5.646039
620.608582	1793.428711	8822.019531	2228.801025	6.194304
620.947266	1749.127563	8840.350586	2189.846680	6.214994
621.285950	1791.901001	8870.903320	2230.328857	6.193357
621.624512	1766.695313	8714.321289	2247.896484	6.926124
621.963074	1795.720093	8742.582031	2228.801025	6.234195
622.301575	1780.443848	8660.854492	2195.957031	6.039075
622.640015	1733.851440	8640.996094	2229.564697	7.176819
622.978455	1733.087524	8689.879883	2220.399170	7.004832
623.316833	1779.680054	8647.871094	2211.233398	6.283363
623.655273	1830.091675	8706.684570	2264.700195	6.320114
623.993530	1801.066772	8663.147461	2206.650635	5.910509
624.331787	1743.017212	8661.619141	2252.479248	7.363656
624.669983	1730.796265	8618.082031	2235.675293	7.330595
625.008179	1763.640015	8769.316406	2232.620117	6.694287
625.346313	1762.876343	8812.853516	2289.906006	7.475622
625.684326	1811.760132	8986.239258	2246.368896	6.057705
626.022400	1759.820923	9081.715820	2256.298340	6.780723
626.360413	1820.162109	9109.211914	2263.936279	6.088231
626.698364	1827.800171	9431.540039	2311.292725	6.358615
627.036255	1842.312500	9649.226563	2315.875488	6.065943
627.374146	1818.634399	9847.817383	2400.658447	7.248857
627.711914	1828.563965	9943.293945	2351.774658	6.447666
628.049744	1844.604004	9794.350586	2393.020508	6.898540
628.387451	1859.880249	9756.160156	2356.357422	6.287482
628.725098	1845.367798	9504.866211	2360.940186	6.731151
629.062744	1888.904907	9431.540039	2377.744385	6.481017
629.400330	1849.186890	9323.079102	2324.277588	6.356670
629.737915	1777.388672	9132.125977	2322.750000	7.415103
630.075378	1773.569702	9101.574219	2326.569092	7.546384
630.412903	1797.247681	9006.097656	2302.890625	7.014197
630.750244	1801.066772	8958.742188	2276.157227	6.637496
631.087708	1758.293335	8712.793945	2239.494385	6.919275
631.424988	1822.453491	8805.214844	2268.519287	6.388100
631.762268	1805.649536	8677.659180	2189.846680	5.590754
632.099487	1768.223022	8635.649414	2155.475342	5.638973
632.436707	1784.263062	8609.679688	2219.635254	6.378690
632.773926	1755.238159	8537.881836	2234.911377	7.072069
633.110962	1785.026855	8512.675781	2225.745850	6.550862
633.448059	1794.192383	8445.459961	2217.343750	6.361966
633.785095	1824.744995	8652.454102	2280.740234	6.678598
634.122131	1755.238159	8646.342773	2230.328857	6.894260
634.458984	1762.112427	8689.879883	2231.856445	6.780597
634.795898	1775.860962	8716.613281	2241.022217	6.701885
635.132690	1751.419067	8695.226563	2219.635254	6.742931
635.469543	1742.253296	8503.510742	2240.258301	7.365568
635.806274	1744.544800	8472.194336	2208.177979	6.891459
636.142944	1721.630371	8415.671875	2168.459961	6.675035
636.479675	1724.685669	8266.728516	2160.057861	6.654988
636.816223	1742.253296	8307.973633	2190.610352	6.828757
637.152893	1731.559937	8167.433105	2103.536133	5.779732
637.489380	1756.765747	8082.650391	2162.349609	6.411496
637.825867	1739.961914	8134.589355	2224.218018	7.572859
638.162292	1717.047485	8061.263184	2130.269531	6.513367
638.498779	1756.001953	7959.676270	2079.093994	5.208076
638.835083	1713.992310	7848.923828	2112.701904	6.499006
639.171387	1726.213257	7835.938965	2105.827393	6.213276
639.507629	1743.780884	7768.724121	2098.189209	5.882351
639.843872	1730.032227	7716.020996	2160.058105	7.183874
640.180054	1712.464722	7675.538574	2105.063721	6.583836
640.516174	1749.891602	7575.479980	2083.677002	5.729643
640.852356	1696.424805	7473.128906	2079.857666	6.637571
641.188354	1706.354126	7567.841309	2073.747314	6.267918
641.524353	1742.253296	7587.700684	2118.812256	6.441919
641.860291	1729.268555	7465.490723	2095.134033	6.378161
642.196228	1675.801758	7308.909668	2066.873047	6.942372
642.532043	1670.455078	7449.450684	2077.566406	7.044673
642.867859	1668.163696	7385.290527	2076.038818	7.134267
643.203674	1688.786499	7388.345703	2063.817627	6.580002
643.539368	1681.148438	7375.360840	2034.792969	6.210596
643.875061	1722.394165	7291.341797	2059.998779	6.062269
644.210754	1703.298950	7286.758301	2100.480713	7.113543
644.546387	1671.982788	7302.798828	2035.556763	6.456861
644.881897	1734.615234	7246.277344	2076.038818	6.194567
645.217468	1724.685547	7145.453613	2030.210083	5.636185
645.552856	1705.590332	7227.945313	2080.621826	6.791152
645.888306	1719.338867	7218.015625	2089.023438	6.723155
646.223694	1706.354126	7172.950684	2040.139648	6.105911
646.558960	1686.495117	7108.027344	2033.265259	6.396165
646.894287	1707.881836	7237.111328	2106.591064	7.210937
647.229553	1731.559937	7251.623535	2070.692139	6.143629
647.564758	1679.620728	7374.597168	2058.471191	6.652362
647.899902	1657.470337	7322.658203	2136.379883	8.453551
648.235046	1707.118042	7331.060059	2043.194946	5.975825
648.570068	1694.897095	7223.362793	2098.953125	7.308647
648.905090	1679.620728	7229.472656	2066.873047	6.977705
649.240051	1670.455078	7239.402344	2042.431030	6.679466
649.574951	1725.449585	7276.829590	2156.239014	7.760042
649.909912	1740.725708	7151.564453	2074.511230	6.168831
650.244690	1723.921875	7259.261719	2079.857910	6.430247
650.579468	1671.982788	7190.518066	2050.069092	6.851208
650.914246	1687.258911	7188.227051	2041.667358	6.442656
651.248962	1670.455078	7175.242188	2067.636963	7.215209
651.583557	1726.213257	7219.543457	2088.259766	6.590656
651.918274	1746.836304	7203.503418	2034.792969	5.277153
652.252808	1736.906616	7172.950684	2056.179688	5.873261
652.587341	1707.118164	7121.775391	2071.455811	6.728730
652.921814	1717.811401	7112.609863	2089.023682	6.880929
653.256226	1768.223022	7161.494141	2097.425537	6.103949
653.590637	1734.615234	7124.066895	2069.164307	6.207479
653.924927	1678.093140	7116.429199	2051.596924	6.867979
654.259338	1643.721680	6970.541016	2045.486328	7.542299
654.593506	1697.952271	7035.464844	2063.053955	6.840296
654.927795	1694.133179	7009.494629	2050.833008	6.710735
655.261902	1707.881836	6831.527344	2047.777832	6.633870
655.596069	1676.565552	6881.174316	2008.823608	6.383920
655.930115	1679.620728	6819.306152	2015.697754	6.538864
656.264160	1647.540649	6839.929199	2010.351074	6.987351
656.598145	1672.746460	6771.949707	2072.219727	7.834033
656.932068	1694.133179	6837.638184	2049.305420	6.905257
657.265991	1684.203613	6758.964844	2087.496094	7.947024
657.599792	1743.017212	6956.028809	2036.320679	5.626373
657.933655	1706.354126	6857.496582	2059.235107	6.850538
658.267395	1743.017212	7061.435059	2037.084351	5.529222
658.601135	1750.655273	7157.674316	2081.385498	6.116683
658.934814	1763.640015	7298.215332	2095.134033	5.989511
659.268433	1781.971558	7596.102051	2169.987549	6.673672
659.601990	1777.388672	7844.341309	2158.530518	6.282262
659.935547	1851.478394	7988.701172	2223.454346	6.060982
660.269043	1830.091675	8087.232910	2255.534424	6.799315
660.602478	1790.373413	8039.112793	2221.926758	6.906247
660.935913	1772.805786	7969.605469	2208.942139	7.038090
661.269165	1827.800171	7677.066406	2221.926758	6.738052
661.602539	1770.514282	7539.580566	2153.947510	6.646365
661.935791	1801.830566	7364.667480	2151.656006	6.288616
662.269043	1801.830566	7279.884277	2175.334229	6.818182
662.602173	1765.931519	7004.148438	2137.907471	7.101194
662.935364	1760.584839	7015.605957	2095.897949	6.380814
663.268433	1809.468750	6905.617188	2076.038818	5.230814
663.601440	1767.459106	6775.769043	2097.425537	6.588378
663.934448	1776.624878	6671.890625	2052.360596	5.632702
664.267395	1754.474243	6587.107910	2042.431152	5.958591
664.600342	1759.820923	6601.619629	2053.124512	6.057740
664.933105	1731.559937	6471.008301	2011.114868	5.898470
665.265991	1732.323853	6454.204590	2042.431152	6.567453
665.598694	1731.559937	6442.747559	1987.436646	5.431257
665.931458	1731.559937	6412.195313	2052.360596	6.853785
666.264099	1737.670410	6402.265625	2053.124512	6.762733
666.596802	1739.198120	6419.068848	2089.023682	7.475112
666.929321	1731.559937	6361.783691	2011.878540	6.054105
667.261841	1775.097168	6341.924316	2005.004395	5.034288
667.594360	1745.308594	6408.376465	2045.486450	6.437347
667.926819	1766.695313	6374.768066	2092.078857	7.061163
668.259216	1769.750610	6403.792969	2048.541748	6.016154
668.591553	1775.097290	6407.611816	2096.661865	6.941469
668.923950	1764.403809	6379.351074	2150.892334	8.374712
669.256165	1768.986694	6448.093750	2113.465576	7.362065
669.588440	1798.775391	6467.189453	2066.873047	5.742799
669.920593	1782.735352	6526.766113	2072.983643	6.118179
670.252686	1823.981079	6485.520996	2108.882813	6.111751
670.584778	1833.146851	6502.324219	2164.640869	7.099624
670.916809	1862.171753	6451.149902	2121.103760	5.642477
671.248840	1781.207642	6432.817871	2107.355225	7.011498
671.580750	1878.211548	6399.974121	2172.279053	6.503382
671.912598	1848.422974	6407.611816	2111.937744	5.779860
672.244507	1833.146851	6366.366699	2068.400635	5.189552
672.576294	1817.106812	6247.976074	2073.747314	5.792103
672.908142	1842.312500	6235.755371	2087.496094	5.580671
673.239746	1827.800171	6299.150879	2140.962646	7.003756
673.571533	1838.493530	6222.770020	2106.591064	6.114978
673.903137	1855.297363	6207.493652	2095.897705	5.528251
674.234741	1868.282227	6264.779785	2113.465576	5.576788
674.566223	1836.202148	6252.558594	2074.510986	5.396051
674.897766	1873.628906	6158.609375	2102.772217	5.347593
675.229187	1873.628906	6154.790527	2122.631104	5.816230
675.560608	1902.653687	6105.906738	2170.751465	6.378340
675.891968	1888.141235	6161.665527	2114.229492	5.290440
676.223267	1904.944946	6121.946777	2147.073242	5.741716
676.554565	1903.417480	6104.378906	2124.922852	5.272730
676.885681	1929.387085	6208.257324	2144.018311	5.016072
677.216919	1925.567993	6195.271973	2101.244385	4.114486
677.548035	1955.356567	6225.061035	2166.168701	4.937394
677.879150	1924.804199	6188.398438	2189.846680	6.216410
678.210144	1901.890015	6129.584473	2173.806641	6.431795
678.541138	1997.366211	6263.251953	2196.720947	4.673232
678.872070	1949.246094	6281.583496	2234.147705	6.576164
679.202942	1923.276489	6464.134277	2292.961182	8.141296
679.533875	2056.179688	6475.591309	2307.473633	5.686141
679.864685	2076.038818	6572.595215	2327.332764	5.588586
680.195435	2077.566650	6616.896484	2403.713867	7.184920
680.526123	2114.229248	6754.382324	2415.934814	6.502060
680.856812	2140.198975	6921.656738	2415.934814	5.766773
681.187378	2175.334229	6962.902832	2413.643311	4.977664
681.518066	2189.083008	7011.786621	2404.477539	4.466261
681.848572	2201.303955	6933.877441	2449.542725	5.245323
682.179016	2229.564697	6935.404785	2471.693115	5.145276
682.509460	2195.957031	6883.466309	2454.125244	5.507577
682.839844	2243.313721	6910.199707	2457.944336	4.599011
683.170227	2199.012451	6912.491699	2499.190430	6.368501
683.500488	2237.966797	6823.125488	2430.447266	4.197902
683.830811	2251.715576	6737.578613	2495.371094	5.431631
684.161011	2209.705811	6591.690918	2458.708252	5.682412
684.491150	2213.524658	6493.158691	2465.582275	5.889700
684.821289	2201.303955	6418.305176	2473.984375	6.466217
685.151367	2215.052490	6435.109375	2467.110107	5.972849
685.481323	2278.448975	6404.556641	2413.643311	3.276559
685.811279	2197.484619	6298.386719	2437.321533	5.848394
686.141296	2179.917236	6276.236328	2409.824219	5.612526
686.471130	2276.921143	6314.427246	2417.462158	3.480887
686.801025	2315.111572	6277.000488	2415.171143	2.525552
687.130798	2266.991455	6328.175781	2434.266357	4.118870
687.460571	2264.700195	6286.929688	2463.291016	4.937332
687.790283	2360.940186	6428.234863	2544.255127	4.507049
688.119934	2410.588135	6502.324219	2529.742676	2.912078
688.449585	2376.980225	6542.806641	2512.174805	3.245325
688.779053	2431.974854	6664.252441	2570.224609	3.266557
689.108643	2403.713867	6545.098145	2557.239990	3.707121
689.438110	2460.235840	6475.591309	2631.329590	4.260986
689.767578	2426.628174	6460.314941	2613.761963	4.639274
690.096863	2427.391846	6353.381348	2548.837891	3.093387
690.426270	2407.532959	6273.945313	2561.058838	3.970758
690.755554	2422.809326	6210.548828	2583.209473	4.234720
691.084839	2417.462646	6209.785156	2586.264648	4.451151
691.413940	2378.508057	6076.118652	2622.163818	6.589546
691.743103	2441.140625	6011.193848	2636.676270	5.477107
692.072205	2465.582520	6062.369141	2571.752197	2.951792
692.401245	2479.331299	6069.243652	2580.154297	2.808509
692.730347	2408.296631	6031.816895	2581.681885	4.784995
693.059265	2415.934814	5971.476074	2578.626709	4.575728
693.388184	2470.165283	5851.557129	2577.098877	3.162414
693.717041	2439.613037	5918.009277	2583.209229	4.128230
694.045898	2431.210938	5899.677734	2629.038086	5.703591
694.374634	2460.235840	5918.009277	2618.344727	4.572564
694.703430	2511.411133	5956.963379	2593.138916	2.371979
695.032104	2478.567383	5908.843750	2625.982910	4.297482
695.360718	2509.883789	5901.968750	2635.912354	3.715372
695.689331	2574.807373	5989.807129	2631.329346	1.655109
696.017822	2611.470459	6042.510254	2646.605713	1.024041
696.346375	2550.365479	5980.642090	2650.424805	2.916946
696.674805	2603.832275	6006.611328	2712.293701	3.187437
697.003296	2619.872314	6103.615234	2671.811523	1.490902
697.331543	2645.842041	6273.945313	2730.625000	2.336840
697.659973	2704.655518	6330.467285	2836.794922	3.644409
697.988159	2756.594482	6564.193359	2843.668945	2.286860
698.316406	2913.939697	6812.431641	2984.973877	1.822094
698.644592	2877.276611	7083.585449	2981.918945	2.487747
698.972717	3062.119141	7379.179688	3111.002930	1.132340
699.300842	3175.927002	7657.207031	3230.157471	1.210156
699.628845	3175.927002	7783.235840	3280.569092	2.271219
699.956909	3301.192139	7870.311035	3302.719482	0.033428
700.284790	3203.424072	7763.376953	3281.332764	1.708542
700.612671	3188.147705	7575.479004	3240.850830	1.201257
700.940491	3175.927002	7363.903809	3239.323242	1.513768
701.268372	3195.022217	7198.920410	3188.147705	-0.171695
701.596069	3062.119141	6843.748047	3134.680908	1.918797
701.923828	3036.149414	6702.442871	3051.425781	0.416671
702.251465	2915.467529	6597.037109	2974.281006	1.597511
702.579102	2918.522461	6356.437012	2950.602539	0.933126
702.906677	2932.271240	6323.593262	2938.381592	0.180176
703.234192	2843.668945	6110.489746	2916.994873	2.244565
703.561707	2869.638672	6037.927246	2901.718750	1.012537
703.889099	2902.482422	5922.591797	2888.734131	-0.455225
704.216553	2871.929932	5836.281250	2925.396729	1.803659
704.543823	2833.739502	5844.683594	2901.718750	2.257739
704.871216	2805.478516	5784.342285	2834.503174	0.974353
705.198364	2800.131836	5842.392090	2869.638672	2.284710
705.525513	2768.051758	5801.145996	2819.227295	1.687239
705.852722	2836.794922	5764.482910	2857.417725	0.704406
706.179810	2789.438477	5707.197266	2849.779297	2.068054
706.506897	2849.779541	5757.608887	2848.251953	-0.052534
706.833862	2802.423096	5675.880859	2849.015625	1.621480
707.160889	2839.849854	5724.001465	2826.865234	-0.450206
707.487793	2874.985352	5692.685059	2889.497803	0.515046
707.814697	2912.412109	5781.286621	2874.221436	-1.331208
708.141479	2852.071045	5794.271484	2879.568115	0.934575
708.468323	2849.015625	5852.321777	2929.979736	2.695833
708.794983	2948.311279	5782.814453	2938.381592	-0.350315
709.121643	2945.255859	5926.410645	2946.019775	0.025625
709.448303	2975.044678	5858.431641	2909.356689	-2.278154
709.774902	2970.461670	5934.812988	2971.989258	0.051532
710.101440	3069.757080	6008.139160	3007.124756	-2.131524
710.427979	3042.260010	5984.460449	2994.903564	-1.609559
710.754395	3060.591553	6098.268066	3104.892578	1.458385
711.080811	3170.580078	6123.474121	3042.259766	-4.345578
711.407166	3130.862061	6267.070801	3076.631592	-1.729173
711.733459	3141.555420	6289.984863	3079.686523	-1.965072
712.059753	3169.816406	6451.913574	3178.218506	0.255998
712.385986	3235.504150	6495.449707	3220.227783	-0.468608
712.712097	3281.333008	6476.355469	3188.147705	-2.916577
713.038269	3282.096680	6368.657715	3174.399414	-3.489232
713.364319	3211.826172	6233.463379	3157.595459	-1.794746
713.690369	3263.764893	6196.036621	3153.012695	-3.777010
714.016296	3178.982422	6201.382813	3132.389648	-1.541582
714.342285	3289.735107	6076.117676	3224.810791	-2.330058
714.668213	3234.740234	6110.489746	3159.886963	-2.602913
714.994019	3222.519531	6079.937012	3085.033447	-4.811551
715.319824	3185.856445	6071.535156	3156.067627	-1.032299
715.645508	3242.378174	6015.776855	3056.008545	-6.719901
715.971252	3193.494873	6087.574707	3111.766602	-2.823981
716.296875	3210.298584	6066.187988	3081.978271	-4.493182
716.622498	3252.307861	6117.363770	3111.002930	-4.932013
716.948059	3197.313721	6072.298828	3170.580078	-0.929871
717.273621	3286.679688	6067.716309	3170.580078	-4.174688
717.599060	3219.464111	6020.359863	3113.294189	-3.790570
717.924438	3250.780518	5969.184082	3152.248779	-3.624618
718.249817	3180.509766	5885.165527	3113.294189	-2.485180
718.575134	3204.951904	5811.839844	3036.913330	-6.445945
718.900391	3175.163086	5658.312988	2999.486572	-7.074745
719.225647	3085.033447	5573.530762	3020.109375	-2.608967
719.550842	3072.812500	5538.395020	2980.391357	-3.748451
719.875977	3133.917236	5401.672363	2965.878906	-7.409897
720.201111	2983.446533	5427.642578	2896.372070	-3.562499
720.526062	3017.054443	5362.718262	2878.804443	-5.893854
720.851135	3038.440674	5261.895020	2860.472900	-8.004112
721.176025	3050.661865	5348.970215	2901.718750	-6.480554
721.500977	3059.827881	5313.070801	2876.512939	-8.135605
721.825745	3021.636963	5181.695313	2837.558594	-8.521916
722.150574	3059.063721	5195.443848	2853.598633	-9.617440
722.475342	2952.130127	5190.097168	2797.076416	-6.928329
722.800049	2994.139893	5190.097168	2833.739502	-7.304349
723.124695	2996.431396	5109.896973	2946.783447	-2.349125
723.449341	2989.556885	5034.279785	2801.659424	-9.189385
723.773865	3013.998779	5079.344238	2781.036377	-11.279585
724.098389	3039.968750	5149.614746	2815.407959	-10.644478
724.422913	3007.124756	5062.540527	2829.156982	-8.658481
724.747253	2998.722656	5107.604980	2827.628906	-8.113006
725.071716	3019.345703	5147.323730	2807.770264	-9.942557
725.395996	2991.084717	5086.218750	2824.573975	-7.947498
725.720276	3039.968506	5141.976563	2787.147217	-12.027608
726.044556	3111.002930	5099.203613	2817.699463	-14.752206
726.368713	3064.410400	5134.338867	2820.754883	-11.771205
726.692871	3039.204834	5139.685547	2881.859619	-7.490914
727.016968	3114.822021	5263.423340	2880.332031	-10.913611
727.341003	3137.736328	5121.354004	2936.854248	-10.127056
727.664978	3141.555420	5304.668457	2940.673096	-9.286723
727.988953	3196.549805	5334.457520	3023.164795	-8.110032
728.312866	3226.338623	5395.562012	2991.848389	-10.809871
728.636780	3216.408936	5442.154785	3030.039063	-8.373367
728.960510	3174.399414	5458.194824	3056.008789	-5.183942
729.284241	3244.669922	5498.677246	2994.139893	-11.114872
729.607971	3257.654541	5423.059082	3013.998779	-11.252205
729.931580	3260.709961	5442.154785	2977.335938	-12.990199
730.255310	3250.780518	5386.396484	3001.778076	-11.659513
730.578857	3295.081299	5418.476563	2978.099854	-14.928047
730.902344	3256.890869	5327.583496	2991.848389	-12.799702
731.225830	3282.096680	5487.220215	3049.134521	-10.564586
731.549316	3280.569092	5359.663086	3010.943604	-12.968412
731.872681	3363.060547	5507.078613	3068.229492	-13.751332
732.195923	3389.793945	5623.941895	3093.435303	-13.264952
732.519226	3372.226563	5568.183594	3063.646484	-14.052191
732.842468	3363.060547	5547.560547	3049.898193	-14.335653
733.165710	3432.567383	5563.601074	3088.088867	-16.164856
733.488770	3386.739014	5564.364746	3104.892578	-12.942832
733.811951	3384.447266	5535.339844	3099.545654	-13.245739
734.134949	3418.819092	5585.751465	3104.892578	-14.487140
734.458008	3431.039795	5488.747559	3110.239258	-15.590189
734.780884	3356.950195	5417.712891	2977.336182	-18.421045
735.103821	3362.296875	5384.869141	3000.250244	-17.900307
735.426697	3387.502686	5364.246094	3007.124756	-19.242657
735.749451	3269.875732	5154.961914	2978.864014	-15.437582
736.072205	3242.378662	5098.439453	2874.985352	-19.794250
736.394897	3183.565186	5136.630371	2877.276611	-15.682455
736.717651	3182.801025	5086.218750	2901.718750	-14.767241
737.040222	3164.469727	4954.079590	2865.819580	-16.688004
737.362793	3183.565186	4984.631348	2848.251953	-18.617485
737.685303	3143.083008	5010.601563	2889.497803	-13.578725
738.007813	3159.123047	4902.140137	2783.328125	-21.560024
738.330200	3188.147705	4924.290527	2841.377686	-19.973589
738.652649	3177.454346	4951.788086	2869.638672	-17.348240
738.974976	3219.464111	4980.048828	2930.743408	-16.399137
739.297180	3292.026367	5105.313965	2868.111084	-23.378271
739.619446	3310.357666	5010.601563	2925.396729	-22.641512
739.941650	3335.563477	5155.725586	2989.556885	-19.009659
740.263794	3258.418701	5009.837402	2930.743408	-18.709135
740.585815	3363.824463	5105.313965	2935.326172	-24.605276
740.907959	3254.599609	4973.937988	2946.019531	-17.947605
741.229858	3141.555420	4899.085449	2907.829102	-13.298568
741.551880	3144.610596	4825.759277	2910.120361	-13.948215
741.873779	3195.786133	4870.824219	2864.291992	-19.790245
742.195557	3134.681396	4803.608887	2894.080322	-14.416509
742.517395	3178.982422	4753.197266	2919.286377	-16.496862
742.839172	3096.490479	4693.619629	2791.729736	-19.081785
743.160828	3063.646729	4647.027344	2787.147217	-17.462606
743.482483	3161.414307	4610.364746	2745.901123	-28.676840
743.804138	3070.520752	4495.792969	2726.042236	-24.169313
744.125671	3017.818115	4523.290039	2719.167725	-19.837660
744.447266	3039.968750	4557.661133	2685.560303	-23.351797
744.768677	3017.053955	4500.375488	2718.404053	-20.133862
745.090088	3056.772461	4423.230469	2722.222900	-24.482975
745.411438	2995.667236	4444.617188	2684.796387	-21.454906
745.732727	3003.305664	4381.984863	2654.243896	-25.318563
746.054016	3041.496094	4372.818848	2713.057373	-24.670105
746.375244	2966.642578	4413.300781	2719.167969	-17.106640
746.696472	3016.290283	4323.171387	2673.339111	-26.241957
747.017578	3033.858154	4278.870605	2625.218994	-32.822094
747.338684	2941.436768	4281.925293	2676.394531	-19.772062
747.659668	2940.673096	4310.186523	2694.725830	-17.958733
747.980713	2952.130127	4284.980957	2696.253662	-19.197681
748.301575	2970.461670	4283.453125	2686.323975	-21.640484
748.622437	2897.899658	4281.161621	2655.771484	-17.504145
748.943359	2973.516846	4386.567871	2667.992432	-21.621613
749.264099	2942.200928	4313.241699	2670.283936	-19.832890
749.584900	3011.707764	4366.708496	2659.590576	-25.986494
749.905579	3002.541748	4330.045410	2658.063232	-25.949347
750.226257	2957.476807	4328.518066	2648.897217	-22.506952
750.546814	2969.697998	4276.578613	2683.268799	-21.917013
750.867432	3007.888428	4237.624512	2618.344971	-31.676996
751.187866	2936.854248	4233.041504	2575.571289	-27.872744
751.508301	2978.863525	4178.047363	2629.038086	-29.171961
751.828735	2962.059814	4167.354004	2655.771484	-25.411915
752.149048	2981.155029	4207.071777	2582.445557	-32.523373
752.469421	3001.013916	4154.369141	2606.123779	-34.238380
752.789612	2863.528076	4090.972656	2590.847412	-22.215313
753.109924	2968.934326	4107.776855	2618.344727	-30.784731
753.429993	2874.985352	4042.852783	2634.384766	-20.601704
753.750122	2907.829346	4042.852539	2569.460693	-29.811607
754.070190	2939.909424	4029.104248	2576.335205	-33.380089
754.390259	2919.286377	4068.822266	2599.249512	-27.840528
754.710205	2902.482422	3969.526611	2612.234375	-27.201128
755.030151	2939.909180	4022.993408	2561.822754	-34.908314
755.349976	2884.151123	3937.446533	2617.580811	-25.308220
755.669800	2908.593018	3966.471680	2532.034180	-35.595654
755.989624	2904.010498	3950.431641	2567.933350	-32.116817
756.309326	2854.362549	3867.940186	2499.190186	-35.041454
756.629028	2832.211914	3950.431641	2481.622559	-31.352457
756.948608	2872.693604	3903.838867	2455.653076	-40.444401
757.268250	2852.834717	3876.341797	2532.034180	-31.343266
757.587769	2850.543213	3830.512939	2509.119873	-34.840191
757.907288	2851.307373	3932.864014	2479.331055	-34.392681
758.226685	2904.010498	3875.578125	2522.868164	-39.229626
758.546021	2884.914795	3968.762939	2620.636230	-24.383358
758.865417	2968.170166	3949.667725	2535.853271	-44.046661
759.184692	2971.225586	3969.526611	2562.586670	-40.933437
759.503967	2943.728271	3942.029541	2541.963623	-40.244831
759.823120	3001.778076	3990.149658	2522.104492	-48.531704
760.142273	2955.185547	3859.537842	2479.331055	-52.618267
760.461365	2938.381592	3942.029541	2436.557617	-50.000000
760.780396	2920.050049	3960.361084	2448.778564	-45.301018
761.099426	2936.854248	3941.265625	2441.140625	-49.353645
761.418457	2952.893799	3938.210693	2442.668213	-51.782894
761.737244	2978.863525	3960.361084	2506.064453	-48.171192
762.056152	2956.713135	3954.250732	2454.888916	-50.306297
762.374939	3001.014404	4008.481201	2516.757813	-48.066753
762.693665	2959.768311	3936.682861	2474.748291	-49.648151
763.012451	3047.606445	4105.484863	2502.245361	-51.552341
763.331055	3120.168701	4129.163086	2585.500977	-52.990158
763.649719	3219.464111	4378.929688	2631.329834	-50.724602
763.968201	3522.697266	4707.368652	2836.031006	-57.962593
764.286804	3722.052002	5264.187012	2950.602539	-50.024769
764.605225	3942.793701	5434.517090	3122.460205	-54.992332
764.923645	3959.597412	5572.767090	3159.123047	-49.621212
765.242004	3903.839111	5344.387207	3173.635498	-50.689289
765.560303	3796.905518	5163.363770	3073.576172	-52.934608
765.878601	3607.480225	4965.536621	2994.139648	-45.163116
766.196777	3562.415283	4794.442871	2903.246094	-53.502796
766.515015	3386.739014	4582.867188	2845.196533	-45.274620
766.833130	3377.572998	4459.129395	2821.518555	-51.412430
767.151184	3261.473877	4369.763672	2787.147217	-42.798073
767.469177	3216.408936	4190.268066	2768.815674	-45.960781
767.787170	3172.107666	4135.273926	2748.956299	-43.933369
768.105103	3153.012451	4132.982422	2656.535400	-50.662476
768.422913	3203.424072	4054.309814	2713.057373	-57.630146
768.740784	3058.299805	3973.345703	2618.344727	-48.080109
769.058594	2963.587158	3957.305908	2589.320068	-37.663280
769.376343	2962.059814	3845.789307	2645.078125	-35.868633
769.693970	2985.738037	3851.135986	2611.470459	-43.248032
770.011658	3005.596924	3829.749268	2569.460693	-52.919369
770.329163	2938.381836	3757.951172	2640.495361	-36.346706
770.646729	2926.160889	3788.503662	2590.083740	-38.972572
770.964233	2985.738037	3764.061523	2558.003662	-54.955860
771.281677	2912.412109	3670.876709	2551.129395	-47.633430
771.599060	2909.356689	3641.087891	2617.581055	-39.874702
771.916382	2963.587646	3641.851563	2536.616943	-62.950527
772.233704	2899.427002	3653.308838	2609.178955	-38.500469
772.550903	2891.789063	3651.781250	2573.280029	-41.909515
772.868103	2923.105469	3683.097656	2594.666748	-43.216064
773.185242	2909.356689	3660.947021	2522.868408	-51.422733
773.502380	2921.577881	3621.992920	2538.908447	-54.634666
773.819397	2926.160889	3598.314453	2583.973389	-50.909126
774.136414	2894.844482	3643.379639	2522.868408	-49.693867
774.453308	2849.779541	3625.047852	2550.365479	-38.620701
774.770203	2862.764404	3588.384766	2582.445557	-38.631611
775.087036	2878.804443	3551.721924	2570.988525	-45.743488
775.403870	2958.240967	3702.192627	2685.560303	-36.653008
775.720642	2906.301514	3491.380859	2482.386475	-72.454285
776.037292	2864.291748	3477.632080	2611.470459	-41.220390
776.354004	2881.095703	3553.249756	2596.958008	-42.272705
776.670593	2821.518555	3536.446045	2585.500977	-33.012798
776.987183	2851.307373	3494.436279	2575.571289	-42.874153
777.303650	2871.930420	3521.169678	2583.973389	-44.352993
777.620117	2884.151123	3529.571533	2633.620850	-38.816601
777.936523	2829.920654	3521.933594	2515.230225	-45.474644
778.252869	2887.969971	3476.104736	2580.154297	-52.337608
778.569153	2858.945313	3542.556396	2629.802002	-33.519543
778.885376	2939.145508	3573.108643	2640.495361	-47.108440
779.201660	2907.065430	3511.239990	2568.697021	-56.005074
779.517822	2957.476807	3560.124023	2558.003662	-66.286400
779.833923	2882.623779	3536.446045	2555.712158	-50.000076
780.149963	2897.135742	3521.169678	2591.611328	-48.959583
780.466003	2948.311279	3548.666748	2635.148682	-52.162861
780.781982	2948.311279	3477.632080	2583.209229	-68.975571
781.097839	2932.271240	3539.500977	2627.510498	-50.188705
781.413696	2970.461914	3516.586914	2606.123779	-66.713326
781.729492	2966.642578	3463.883789	2582.445557	-77.265724
782.045288	2853.598633	3500.546875	2520.577148	-51.475754
782.360962	2838.322510	3439.442139	2591.611328	-41.041943
782.676636	2932.271240	3564.706787	2600.013428	-52.536232
782.992310	2832.211914	3466.175049	2592.375244	-37.831329
783.307861	2871.930420	3387.502686	2593.902832	-53.926018
783.623352	2913.175781	3383.683594	2562.586670	-74.512917
783.938843	2899.427490	3389.030029	2565.641846	-68.174820
784.254272	2878.040283	3325.633789	2543.491211	-74.743950
784.569580	2842.141357	3337.091064	2564.114014	-56.172848
784.884888	2841.377686	3369.171143	2600.013428	-45.730816
785.200134	2858.945313	3347.784424	2528.214844	-67.656303
785.515442	2848.251953	3301.192139	2553.420898	-65.092712
785.830566	2823.809814	3307.302490	2538.908203	-58.925735
786.145752	2888.734131	3290.498779	2565.641846	-80.418297
786.460815	2849.015625	3286.679688	2558.003662	-66.492088
786.775818	2833.739502	3345.493164	2503.009277	-64.626839
787.090759	2845.960693	3408.889404	2584.737061	-46.404388
787.405762	2828.392822	3285.916016	2578.626465	-54.590973
787.720581	2781.800049	3244.669922	2542.727295	-51.650101
788.035400	2850.543213	3311.121338	2577.098877	-59.369804
788.350220	2901.718750	3447.079834	2560.295166	-62.605049
788.664856	3011.707764	3517.350586	2635.912354	-74.320328
788.979553	3078.159180	3533.390625	2644.314209	-95.302063
789.294189	3069.757080	3589.912354	2682.504883	-74.449348
789.608765	3075.103760	3657.891846	2615.289551	-78.899040
789.923279	3022.400635	3577.691406	2604.595947	-75.240707
790.237793	3049.898193	3533.390625	2640.495361	-84.676163
790.552185	2981.155029	3426.457031	2637.440186	-77.186905
790.866638	3030.039063	3456.245361	2661.118164	-86.559235
791.180908	2968.934326	3433.331299	2593.902588	-80.756714
791.495117	2933.798828	3335.563477	2615.289551	-79.277580
791.809387	2920.050049	3342.437744	2625.982666	-69.620255
792.123535	2901.718750	3278.277588	2577.098877	-86.206947
792.437744	2924.633057	3233.976563	2496.135010	-138.518524
792.751770	2902.482422	3195.786133	2522.868408	-129.426941
793.065796	2817.699463	3262.237549	2503.773193	-70.618530
793.379822	2790.202393	3208.006836	2414.407227	-89.945229
793.693726	2833.739502	3210.298584	2491.552002	-90.872192
794.007568	2821.518555	3195.022217	2491.552002	-88.343590
794.321411	2845.196533	3166.760986	2539.672119	-95.011871
794.635193	2795.549072	3155.303955	2474.748291	-89.172043
794.948914	2803.950928	3172.871826	2496.898682	-83.229836
795.262634	2730.625000	3111.002930	2493.843506	-62.249008
795.576233	2781.800537	3107.947510	2480.858643	-92.271866
795.889832	2784.091797	3261.473877	2484.677734	-62.720005
796.203308	2826.865234	3250.780518	2532.034180	-69.549522
796.516846	2878.040283	3233.212646	2560.295166	-89.462227
796.830261	2911.648438	3322.578857	2516.757813	-96.096710
797.143616	2971.989502	3372.990234	2508.355713	-115.619186
797.456970	2964.351318	3313.412842	2595.430420	-105.689362
797.770203	2991.084717	3343.201416	2598.485596	-111.496880
798.083496	2912.412109	3292.026367	2545.782471	-96.579521
798.396606	2884.915039	3226.338623	2559.531494	-95.302010
798.709778	2897.135742	3178.218506	2541.199951	-126.630241
799.022827	2875.749268	3184.328857	2485.441650	-126.485237
799.335938	2845.196533	3182.037354	2541.199951	-90.249329
799.648865	2826.101318	3127.806885	2469.401611	-118.227753
799.961853	2819.990967	3192.730713	2478.567383	-91.598381
800.274658	2812.352783	3066.701904	2496.135010	-124.324303
800.587524	2766.524170	3132.389648	2496.134766	-73.904053
800.900269	2804.714844	3077.395264	2466.346436	-124.089737
801.213013	2793.257813	3098.018311	2435.030029	-117.544037
801.525696	2761.177490	2997.195068	2443.431885	-134.627945
801.838318	2704.655273	3030.802734	2432.738525	-83.372330
802.150940	2721.459229	3001.014404	2403.713623	-113.661140
802.463440	2697.017334	2965.878906	2449.542480	-92.045456
802.775940	2705.419189	2946.019775	2378.508057	-135.872955
803.088379	2710.002197	3023.928467	2430.447266	-89.051140
803.400757	2732.152588	2950.602539	2416.698486	-144.405670
803.713074	2738.262939	2959.768311	2363.995850	-168.965240
804.025330	2717.639893	2972.753174	2441.904297	-108.083588
804.337585	2741.318359	2911.648438	2353.302246	-227.802460
804.649719	2685.560059	2894.844482	2393.020508	-139.780853
804.961914	2672.575439	2959.768311	2399.894775	-94.946877
805.273926	2655.007813	2908.593018	2365.523193	-114.156746
805.585999	2739.790771	2967.406250	2380.799561	-157.718277
805.897949	2750.484131	2933.798828	2456.416992	-160.416565
806.209900	2736.735352	3020.873291	2476.275879	-91.666557
806.521729	2727.569580	2952.893799	2473.220703	-112.881287
806.833618	2710.765869	2994.139893	2476.275635	-82.749374
807.145325	2732.152588	3011.707764	2437.321289	-105.464439
807.457031	2737.499268	3019.345703	2474.748047	-93.224960
807.768738	2718.404053	2986.501953	2435.793945	-105.413025
808.080322	2709.238281	2905.537842	2425.864258	-144.357956
808.391907	2706.182861	2948.311279	2415.170898	-120.189102
808.703430	2646.605713	2937.617920	2413.643311	-80.052452
809.014954	2693.962158	2969.697998	2397.603271	-107.479279
809.326355	2671.811523	2862.764404	2404.477539	-139.999969
809.637817	2605.360107	2866.583252	2373.925049	-88.596687
809.949036	2630.565674	2833.739502	2376.980469	-124.811943
810.260315	2625.982666	2823.809814	2396.075439	-116.216217
810.571594	2669.520264	2773.398438	2342.608887	-314.706512
810.882690	2559.531250	2794.785156	2345.664307	-90.908989
811.193848	2573.280029	2762.705078	2300.599365	-143.951752
811.504883	2532.034180	2768.051758	2315.111572	-91.909515
811.815979	2566.405518	2759.649658	2342.609131	-115.810181
812.126892	2522.104492	2751.248047	2318.930664	-88.666611
812.437866	2531.270264	2711.529541	2283.795654	-137.288147
812.748657	2532.034180	2714.584961	2276.921143	-139.749084
813.059509	2503.773193	2646.605713	2266.227783	-166.310455
813.370300	2477.803467	2596.194336	2241.021729	-200.000000
813.680969	2455.653076	2678.685791	2238.730713	-97.260330
813.991638	2464.818604	2722.222900	2188.319092	-107.418373
814.302246	2473.984375	2651.952393	2184.500000	-162.660904
814.612854	2418.226318	2683.268799	2206.650635	-79.827087
814.923340	2405.241455	2625.982910	2153.947510	-113.840851
815.233887	2428.919678	2623.691406	2133.324463	-151.764954
815.544189	2420.517822	2608.415283	2166.932373	-134.959488
815.854614	2428.919678	2568.697021	2102.008545	-233.879913
816.164917	2463.291016	2593.903076	2169.987549	-224.560791
816.475159	2407.532959	2615.289307	2109.646484	-143.382614
816.785400	2530.506592	2765.760498	2241.022217	-123.051888
817.095459	2409.060547	2678.685791	2158.530518	-92.917870
817.405640	2440.376709	2664.937256	2136.379883	-135.374100
817.715698	2480.858643	2658.826904	2134.852295	-194.420258
818.025757	2446.487305	2626.746826	2139.435303	-170.338852
818.335632	2420.517578	2670.283936	2173.806641	-98.776688
818.645630	2502.245605	2684.032471	2150.128662	-193.697678
818.955383	2466.346436	2689.379150	2173.042725	-131.507034
819.265259	2472.456787	2679.449463	2157.002930	-152.398560
819.575012	2496.135010	2737.499268	2183.736084	-129.430481
819.884705	2538.908203	2796.312500	2270.810547	-104.154305
820.194336	2627.510498	2821.518555	2197.484863	-221.653488
820.503906	2748.956299	3043.787842	2347.955811	-136.010040
820.813477	2813.116455	3218.700439	2384.618408	-105.649651
821.122986	2946.783447	3304.247314	2471.693115	-132.905838
821.432495	3037.677002	3370.698486	2489.260742	-164.678940
821.741821	3094.199219	3496.727539	2535.853271	-138.709732
822.051208	3293.553711	3784.684570	2633.620850	-134.370071
822.360474	3641.851807	4157.424316	2826.865234	-158.074097
822.669800	4617.238770	5578.113281	3276.750000	-139.507156
822.978943	6601.620605	8398.104492	4274.287598	-129.549347
823.288025	8662.382813	11221.149414	5429.169922	-126.358261
823.597168	9979.193359	12787.727539	6063.896973	-139.407104
823.906189	9666.794922	12374.504883	6073.826660	-132.693985
824.215271	8684.532227	10889.656250	5528.465332	-143.124237
824.524109	7637.348145	9474.313477	5014.420410	-142.785919
824.833069	6797.919922	8355.331055	4682.926270	-135.801880
825.141907	6178.468750	7564.786621	4285.744629	-136.528870
825.450684	5761.427734	6954.501465	4050.490967	-143.405792
825.759399	5380.285645	6413.722656	3920.642822	-141.241592
826.068054	5064.068359	6102.851563	3751.076904	-126.397064
826.376709	4874.643066	5638.454590	3607.480469	-165.899902
826.685303	4639.389160	5441.391113	3448.607422	-148.476166
826.993835	4336.919922	5073.233887	3307.302734	-139.833984
827.302307	4149.786133	4776.111328	3197.313721	-152.073151
827.610779	4316.296875	5045.736816	3287.443359	-141.047043
827.919128	4800.553223	5702.614746	3449.371338	-149.788223
828.227478	5062.540527	6180.760254	3618.173828	-129.166626
828.535706	5226.760254	6319.773438	3613.590820	-147.589203
828.843994	4915.125000	5872.944824	3541.792725	-143.381073
829.152161	4436.979004	5287.864746	3261.473877	-138.150757
829.460205	4152.077637	4850.201172	3135.444580	-145.623657
829.768311	3748.021484	4299.493164	2924.633057	-149.307480
830.076355	3572.344971	4138.329590	2808.533936	-134.952606
830.384338	3473.813232	3843.497803	2774.162109	-189.256241
830.692200	3275.986328	3667.821289	2652.716309	-159.064423
831.000061	3135.445068	3520.406006	2671.811523	-120.436516
831.307922	2997.958984	3390.557861	2564.114258	-110.505852
831.615723	2881.859375	3212.589844	2499.953857	-115.473343
831.923401	2677.158203	2971.225586	2340.317383	-114.545456
832.231079	2622.927734	2920.813721	2363.995850	-86.923149
832.538635	2590.083740	2773.398438	2327.332764	-143.333282
832.846191	2609.178955	2786.383545	2253.242920	-200.861633
833.153748	2598.485596	2763.468994	2276.157227	-195.370178
833.461182	2590.847656	2724.514648	2270.810547	-239.428680
833.768616	2677.158203	2894.844482	2260.117188	-191.578918
834.075989	2768.051758	3107.183838	2441.140625	-96.396408
834.383240	3151.485107	3563.179443	2591.611328	-135.992584
834.690491	3444.024658	3929.808594	2784.855469	-135.691849
834.997742	3605.188721	4149.786621	2798.604248	-148.106430
835.304871	3670.112549	4108.540527	2874.985352	-181.358673
835.611938	3485.270508	4010.772461	2847.488281	-121.366287
835.919006	3278.277344	3850.372070	2723.750732	-96.929161
836.225952	3172.108154	3607.480225	2658.826904	-117.894852
836.533020	3043.787842	3398.196045	2565.641846	-134.913925
836.839844	2939.909180	3289.734619	2531.270264	-116.812233
837.146667	2821.518555	3127.042969	2496.135010	-106.500015
837.453491	2793.257568	3002.541748	2462.527344	-158.029251
837.760254	2721.459229	2887.969971	2376.216553	-207.339584
838.066956	2586.264648	2787.146729	2322.749756	-131.178894
838.373596	2538.144531	2679.449707	2292.197266	-174.053970
838.680176	2470.929443	2589.320068	2222.690674	-209.677719
838.986694	2332.679443	2444.196045	2232.620117	-89.725945
839.293152	2338.789795	2400.658447	2210.469482	-207.407639
839.599548	2267.755615	2360.176758	2179.153320	-95.867996
839.905945	2241.785889	2384.618408	2123.395264	-82.887726
840.212280	2256.298096	2361.704346	2166.932373	-84.782188
840.518616	2238.730713	2395.312012	2211.233398	-17.561047
840.824768	2295.252686	2488.496826	2159.294189	-70.355820
841.130981	2421.281250	2565.641846	2208.941650	-147.089722
841.437073	2385.382324	2579.390381	2185.263916	-103.149536
841.743164	2399.894775	2507.592041	2201.303711	-184.397507
842.049194	2300.599365	2471.693115	2165.404541	-79.017982
842.355164	2283.795410	2392.256592	2188.319092	-88.028099
842.661072	2238.730469	2299.071533	2123.395264	-191.138824
842.966858	2223.454346	2292.961182	2132.560791	-130.769226
843.272766	2160.057861	2257.062256	2092.842529	-69.291016
843.578430	2156.239014	2205.122803	2086.732178	-142.187912
843.884277	2116.520752	2139.435059	2064.581543	-226.667160
844.189819	2094.370361	2140.198975	2026.390991	-148.333908
844.495483	2056.943359	2140.962646	2059.998779	3.636570
844.801025	2091.314941	2082.913086	2076.802490	172.729126
845.106445	2006.532104	2021.808228	1986.672852	-130.001923
845.411987	2004.240601	1991.255737	1985.909180	141.175308
845.717346	1985.145142	1987.436890	2021.044434	1566.458984
846.022705	1941.608032	1943.899414	1966.050171	1066.698608
846.328003	1932.442383	2000.421509	1981.326294	71.910179
846.633240	1953.065308	1947.718628	1988.964355	-671.426941
846.938416	1940.844238	1927.095703	1975.979492	-255.556351
847.243591	1937.025024	1958.411987	1998.130005	285.711365
847.548645	1902.653687	1907.236450	1963.758667	1333.365356
847.853760	1881.266968	1871.337402	1936.261353	-553.844849
848.158691	1899.598511	1919.457520	1958.411743	296.153931
848.463623	1899.598511	1914.110840	1985.145386	589.477234
848.768494	1933.969849	1894.251831	1904.945190	73.076805
849.073303	1862.935547	1888.141235	1938.552856	300.000977
849.378113	1851.478394	1846.131714	1920.221313	-1285.712280
849.682800	1869.045898	1848.423218	1891.960327	-111.112755
849.987488	1853.005859	1843.840210	1909.527954	-616.673096
850.292114	1886.613647	1885.085938	1877.447876	599.968018
850.596680	1898.070801	1886.613647	1886.613647	100.000000
850.901184	1849.186890	1875.156616	1924.804199	291.174835
851.205627	1869.046021	1854.533569	1938.552734	-478.945374
851.510071	1840.021118	1814.051636	1878.975586	-150.000946
851.814392	1833.146851	1814.051636	1883.558228	-264.000061
852.118774	1843.076294	1795.720093	1890.432617	-100.000259
852.423035	1843.840210	1824.744751	1914.110840	-367.996552
852.727234	1836.202148	1841.548828	1872.101196	671.426941
853.031372	1789.609741	1855.297363	1894.251831	159.302597
853.335449	1787.318237	1769.750488	1856.061157	-391.301819
853.639526	1840.021118	1820.162109	1829.327759	53.846390
853.943604	1817.106812	1823.217285	1878.211792	1000.003967
854.247498	1807.941040	1795.720093	1844.604004	-300.001007
854.551331	1798.775391	1767.459106	1855.297363	-180.487488
854.855225	1739.198120	1741.489624	1785.026733	1999.936035
855.158997	1775.097168	1777.388672	1812.524048	1633.288940
855.462708	1801.830566	1814.051636	1822.453613	168.749939
855.766418	1775.860962	1759.057251	1843.076538	-400.004364
856.070068	1754.474243	1775.860962	1837.729614	389.285400
856.373596	1764.403809	1765.931274	1808.704712	2900.287598
856.677185	1753.710449	1765.167603	1807.941040	473.333893
856.980591	1756.001953	1762.876343	1840.021118	1222.205444
857.284119	1788.082031	1713.992188	1839.257324	-69.071938
857.587463	1777.388672	1772.805786	1840.021118	-1366.659546
857.890747	1770.514282	1765.931519	1870.573608	-2183.384033
858.194031	1785.026855	1792.664917	1843.840210	770.003662
858.497192	1801.830566	1713.992310	1878.211792	-86.956673
858.800415	1793.428711	1704.062866	1859.116577	-73.504440
859.103455	1790.373413	1720.102905	1851.478394	-86.956795
859.406555	1763.640015	1759.820923	1813.287720	-1299.987183
859.709595	1815.579224	1782.735352	1856.061157	-123.255669
860.012573	1783.499146	1789.609741	1853.005859	1137.478516
860.315430	1794.192383	1756.765625	1837.729858	-116.327133
860.618286	1720.102905	1704.826538	1843.076538	-804.992676
860.921082	1728.504761	1798.775391	1885.849976	223.913193
861.223816	1727.740845	1745.308594	1847.659180	682.604980
861.526550	1738.434204	1764.403809	1811.760132	282.352875
861.829102	1764.403809	1733.851440	1849.950684	-280.000793
862.131775	1768.986694	1702.535156	1820.162109	-77.011635
862.434265	1720.866577	1729.268555	1849.186890	1527.263184
862.736755	1728.504761	1723.921875	1833.910645	-2299.989258
863.039185	1724.685547	1720.866577	1853.005859	-3360.076660
863.341553	1757.529419	1704.062866	1830.855469	-137.143784
863.643860	1741.489624	1697.188477	1807.941040	-149.999313
863.946167	1735.379028	1731.559937	1788.082031	-1379.987793
864.248413	1736.142944	1710.937134	1815.579224	-315.150665
864.550537	1704.062866	1719.338989	1777.388672	480.002716
864.852661	1742.253296	1726.977051	1798.775391	-369.999908
865.154785	1744.544800	1724.685669	1806.413452	-311.537567
865.456787	1759.057129	1697.952271	1792.664917	-55.000191
865.758728	1716.283691	1689.550415	1784.263062	-254.287460
866.060669	1728.504761	1714.755981	1828.563965	-727.767883
866.362427	1695.660767	1731.559937	1775.097168	221.276428
866.664246	1692.605591	1689.550415	1750.655273	-1900.043945
866.966064	1691.078003	1674.274048	1801.830566	-659.086304
867.267700	1723.921875	1701.007446	1772.041992	-209.999207
867.569336	1707.881836	1671.218872	1743.780884	-97.916382
867.870911	1681.912109	1731.560059	1778.916382	195.384247
868.172546	1740.725586	1689.550293	1755.238159	-28.358555
868.473999	1776.624878	1687.258911	1714.756226	69.230667
868.775452	1753.710571	1701.771484	1736.142944	33.823521
869.076782	1718.575195	1688.022827	1791.901001	-240.000397
869.378174	1715.520020	1687.258789	1730.032349	-51.350662
869.679443	1693.369507	1692.605591	1730.796265	-4899.329102
869.980591	1717.811401	1666.636108	1810.232422	-180.596954
870.281799	1694.133179	1649.832031	1749.891479	-125.861977
870.582947	1686.495117	1718.575195	1754.474243	211.904495
870.884033	1688.022827	1666.636108	1783.499146	-446.428070
871.184998	1723.158081	1687.258911	1751.419067	-78.723228
871.485962	1676.565552	1700.243774	1765.931519	377.418396
871.786865	1703.298950	1678.857056	1741.489624	-156.250870
872.087769	1691.078125	1684.967407	1766.695313	-1237.451782
872.388489	1715.519897	1695.660767	1772.041992	-284.615143
872.689270	1666.636108	1665.108398	1733.851440	-4399.744141
872.989990	1723.158081	1699.479858	1750.655273	-116.128616
873.290588	1678.093262	1684.203735	1740.725708	1025.001465
873.591187	1713.992310	1733.851440	1744.544800	153.846054
873.891724	1734.615234	1684.967407	1772.805664	-76.922661
874.192261	1749.891479	1688.022827	1797.247681	-76.543129
874.492676	1722.394165	1707.881836	1731.560059	-63.159355
874.793091	1694.133301	1745.308594	1752.946655	114.925293
875.093384	1749.891479	1675.801758	1731.559937	24.742357
875.393677	1688.786621	1665.872192	1803.358276	-499.997864
875.693848	1680.384766	1692.605591	1727.740845	387.503113
875.994019	1681.912109	1719.338989	1754.474243	193.877060
876.294189	1704.826660	1719.338989	1736.906616	221.053116
876.594177	1693.369507	1684.203613	1766.695313	-799.985352
876.894226	1644.485474	1734.615234	1716.283691	79.660942
877.194153	1677.329468	1716.283691	1747.599976	180.392532
877.494080	1645.249390	1668.163696	1745.308594	436.666962
877.793945	1720.102905	1730.796265	1727.740845	71.426941
878.093750	1675.037964	1695.660767	1747.599976	351.853302
878.393433	1726.213379	1701.007446	1736.142944	-39.393764
878.693237	1715.520020	1727.740845	1733.851440	150.001495
878.992798	1759.057129	1667.399780	1728.504761	33.333244
879.292358	1692.605591	1736.906616	1711.700806	43.103325
879.591980	1721.630371	1732.323853	1710.173218	-107.141472
879.891418	1745.308594	1726.213257	1724.685669	107.999794
880.190796	1783.499023	1771.278198	1746.836304	300.001984
880.490234	1825.508789	1804.122070	1760.584595	303.572479
880.789551	1785.790527	1882.030762	1836.965820	53.174530
881.088745	1875.920288	1954.592773	1817.870728	-73.786354
881.388062	1976.743530	2087.496094	1855.297363	-109.655403
881.687195	2083.676758	2262.408936	1952.301392	-73.504036
881.986328	2393.020264	2619.872314	2134.852295	-113.804558
882.285339	2865.055664	3323.342529	2392.256592	-103.166618
882.584351	3416.527588	3997.787842	2639.731445	-133.639984
882.883301	3812.945313	4599.671387	2864.291992	-120.582420
883.182129	4000.079102	4814.302246	2977.335938	-125.609688
883.481018	4077.223877	4845.617676	3031.566650	-136.083511
883.779785	3810.654053	4578.284180	2906.301758	-117.810944
884.078552	3788.503662	4443.089844	2869.638672	-140.373413
884.377258	3589.148682	4174.228027	2810.061279	-133.159271
884.675903	3375.281494	3922.934326	2700.072510	-123.291428
884.974487	3318.759766	3710.594727	2584.737061	-187.329559
885.272949	3107.947510	3543.320313	2548.837891	-128.420883
885.571472	2967.406494	3369.171143	2501.481689	-115.969589
885.869873	2853.598633	3192.730713	2391.492920	-136.261276
886.168274	2697.017334	2971.225586	2287.614502	-149.303619
886.466553	2498.426514	2739.791016	2178.389648	-132.594833
886.764832	2373.161377	2545.782715	2137.143799	-136.725616
887.063049	2206.650635	2304.418457	1989.728149	-221.875137
887.361145	2028.682617	2245.604736	1927.095703	-46.831055
887.659241	2075.275146	2181.444580	1993.547241	-76.978752
887.957336	1914.110840	2053.888184	1875.156372	-27.868942
888.255249	1904.945190	1966.813843	1833.146851	-116.049629
888.553223	1853.005981	1942.371948	1812.523926	-45.299187
888.851135	1818.634399	1857.588867	1745.308594	-188.234650
889.148926	1827.800171	1833.910645	1738.434204	-1462.504761
889.446716	1812.523926	1801.066772	1760.584839	453.333252
889.744446	1748.363770	1778.152466	1747.600098	-2.563630
890.042114	1718.575195	1743.017090	1664.344604	-221.875565
890.339722	1710.173340	1730.796021	1720.866577	51.851830
890.637329	1646.013062	1733.087524	1697.188477	58.772015
890.934814	1661.289429	1692.605469	1682.676147	68.293175
891.232239	1684.203735	1675.037964	1666.636108	191.665558
891.529724	1649.832153	1689.550415	1663.580688	34.615147
891.827026	1628.445313	1704.062866	1655.942749	36.363827
892.124329	1651.359741	1664.344604	1639.138672	-94.117813
892.421570	1605.531128	1638.375000	1614.696899	27.907097
892.718811	1610.877808	1669.691284	1649.832153	66.233704
893.015869	1634.556030	1623.862671	1629.973145	42.857307
893.312988	1607.058716	1634.556030	1683.439819	277.776581
893.609985	1662.817017	1640.666382	1594.073853	310.343994
893.907043	1640.666382	1602.475952	1641.430298	-2.000281
>>>>>End Processed Spectral Data<<<<<
